Data from Absorbance_14-42-39-645.txt Node
Date: Mon Jul 24 14:42:39 CEST 2023
User: AK Théato Seminar
Spectrometer: HDX00655
Trigger mode: 0
Integration Time (sec): 1.000000E-1
Scans to average: 1
Nonlinearity correction enabled: false
Boxcar width: 0
Storing dark spectrum: false
XAxis mode: Wavelengths
Number of Pixels in Spectrum: 2068
>>>>>Begin Spectral Data<<<<<
194.076	-0.37
194.628	-0
195.18	-0
195.732	-0
196.284	-0.33
196.835	-0.09
197.387	-0.11
197.938	-0.01
198.49	0.18
199.041	-0.08
199.592	0.01
200.143	-0.09
200.694	0.15
201.244	0.02
201.795	-0.08
202.345	0.12
202.896	0.19
203.446	0.23
203.996	-0.2
204.546	0.08
205.096	0.26
205.646	-0.13
206.195	-0.03
206.745	0.1
207.294	0.09
207.843	0.11
208.392	0.24
208.942	0.16
209.49	0.1
210.039	0.28
210.588	0.23
211.136	0.34
211.685	0.33
212.233	0.38
212.781	0.19
213.33	0.14
213.877	0.23
214.425	0.28
214.973	0.24
215.521	0.12
216.068	0.21
216.616	0.2
217.163	0.11
217.71	0.2
218.257	0.18
218.804	0.31
219.351	0.33
219.897	0.33
220.444	0.49
220.99	0.38
221.537	0.38
222.083	0.31
222.629	0.37
223.175	0.42
223.721	0.4
224.266	0.37
224.812	0.46
225.357	0.43
225.903	0.42
226.448	0.4
226.993	0.41
227.538	0.4
228.083	0.4
228.628	0.36
229.172	0.36
229.717	0.36
230.261	0.34
230.806	0.34
231.35	0.34
231.894	0.32
232.438	0.31
232.982	0.31
233.525	0.3
234.069	0.29
234.612	0.28
235.156	0.29
235.699	0.28
236.242	0.27
236.785	0.27
237.328	0.26
237.871	0.25
238.413	0.25
238.956	0.24
239.498	0.23
240.041	0.23
240.583	0.22
241.125	0.23
241.667	0.22
242.208	0.22
242.75	0.21
243.292	0.21
243.833	0.21
244.375	0.2
244.916	0.2
245.457	0.2
245.998	0.2
246.539	0.19
247.08	0.2
247.62	0.18
248.161	0.19
248.701	0.18
249.241	0.18
249.782	0.18
250.322	0.18
250.862	0.18
251.401	0.17
251.941	0.17
252.481	0.17
253.02	0.16
253.56	0.16
254.099	0.16
254.638	0.16
255.177	0.17
255.716	0.16
256.254	0.15
256.793	0.16
257.332	0.16
257.87	0.15
258.408	0.15
258.947	0.14
259.485	0.15
260.023	0.14
260.56	0.14
261.098	0.14
261.636	0.14
262.173	0.13
262.711	0.14
263.248	0.13
263.785	0.13
264.322	0.12
264.859	0.13
265.396	0.12
265.932	0.13
266.469	0.12
267.005	0.12
267.542	0.11
268.078	0.12
268.614	0.11
269.15	0.12
269.686	0.11
270.221	0.12
270.757	0.12
271.292	0.12
271.828	0.11
272.363	0.11
272.898	0.11
273.433	0.12
273.968	0.11
274.503	0.12
275.038	0.1
275.572	0.11
276.107	0.1
276.641	0.11
277.175	0.1
277.709	0.1
278.243	0.11
278.777	0.09
279.311	0.1
279.844	0.11
280.378	0.1
280.911	0.1
281.445	0.09
281.978	0.1
282.511	0.1
283.044	0.1
283.577	0.09
284.109	0.1
284.642	0.1
285.174	0.1
285.707	0.1
286.239	0.09
286.771	0.09
287.303	0.1
287.835	0.09
288.367	0.09
288.898	0.1
289.43	0.09
289.961	0.1
290.493	0.09
291.024	0.09
291.555	0.09
292.086	0.09
292.617	0.09
293.147	0.09
293.678	0.09
294.208	0.09
294.739	0.09
295.269	0.09
295.799	0.09
296.329	0.09
296.859	0.09
297.389	0.09
297.919	0.1
298.448	0.09
298.978	0.09
299.507	0.09
300.036	0.09
300.565	0.09
301.094	0.09
301.623	0.08
302.152	0.09
302.681	0.09
303.209	0.08
303.738	0.08
304.266	0.08
304.794	0.09
305.322	0.09
305.85	0.09
306.378	0.09
306.906	0.08
307.433	0.08
307.961	0.09
308.488	0.1
309.015	0.09
309.543	0.09
310.07	0.09
310.596	0.09
311.123	0.09
311.65	0.09
312.177	0.09
312.703	0.09
313.229	0.1
313.756	0.1
314.282	0.1
314.808	0.1
315.334	0.1
315.859	0.1
316.385	0.1
316.91	0.1
317.436	0.1
317.961	0.1
318.486	0.11
319.011	0.11
319.536	0.1
320.061	0.1
320.586	0.11
321.111	0.1
321.635	0.11
322.16	0.1
322.684	0.1
323.208	0.11
323.732	0.1
324.256	0.11
324.78	0.1
325.303	0.11
325.827	0.12
326.35	0.1
326.874	0.12
327.397	0.11
327.92	0.11
328.443	0.11
328.966	0.11
329.489	0.12
330.012	0.11
330.534	0.11
331.057	0.12
331.579	0.12
332.101	0.12
332.623	0.12
333.145	0.11
333.667	0.12
334.189	0.12
334.71	0.13
335.232	0.13
335.753	0.12
336.275	0.12
336.796	0.13
337.317	0.13
337.838	0.13
338.359	0.13
338.879	0.13
339.4	0.14
339.921	0.13
340.441	0.13
340.961	0.12
341.481	0.12
342.001	0.13
342.521	0.12
343.041	0.13
343.561	0.13
344.08	0.13
344.6	0.13
345.119	0.13
345.639	0.14
346.158	0.14
346.677	0.14
347.196	0.13
347.714	0.15
348.233	0.14
348.752	0.14
349.27	0.14
349.788	0.14
350.307	0.15
350.825	0.13
351.343	0.14
351.861	0.15
352.378	0.13
352.896	0.14
353.414	0.15
353.931	0.14
354.448	0.14
354.965	0.15
355.483	0.15
356	0.15
356.516	0.14
357.033	0.14
357.55	0.14
358.066	0.15
358.583	0.15
359.099	0.14
359.615	0.16
360.131	0.14
360.647	0.14
361.163	0.14
361.679	0.14
362.194	0.15
362.71	0.13
363.225	0.14
363.741	0.14
364.256	0.14
364.771	0.13
365.286	0.14
365.8	0.14
366.315	0.13
366.83	0.15
367.344	0.14
367.859	0.14
368.373	0.14
368.887	0.13
369.401	0.14
369.915	0.14
370.429	0.14
370.942	0.13
371.456	0.13
371.97	0.12
372.483	0.12
372.996	0.13
373.509	0.14
374.022	0.12
374.535	0.14
375.048	0.12
375.561	0.13
376.073	0.13
376.586	0.12
377.098	0.13
377.61	0.12
378.122	0.12
378.634	0.12
379.146	0.11
379.658	0.12
380.17	0.1
380.681	0.12
381.193	0.12
381.704	0.11
382.215	0.12
382.726	0.11
383.237	0.12
383.748	0.11
384.259	0.11
384.77	0.1
385.28	0.11
385.791	0.11
386.301	0.11
386.811	0.11
387.321	0.1
387.831	0.11
388.341	0.12
388.851	0.11
389.36	0.1
389.87	0.1
390.379	0.09
390.889	0.09
391.398	0.1
391.907	0.09
392.416	0.08
392.925	0.09
393.434	0.09
393.942	0.07
394.451	0.08
394.959	0.09
395.467	0.09
395.976	0.1
396.484	0.09
396.992	0.1
397.499	0.08
398.007	0.08
398.515	0.08
399.022	0.07
399.53	0.08
400.037	0.08
400.544	0.08
401.051	0.08
401.558	0.09
402.065	0.08
402.572	0.08
403.078	0.07
403.585	0.07
404.091	0.08
404.598	0.08
405.104	0.08
405.61	0.07
406.116	0.07
406.622	0.08
407.127	0.06
407.633	0.08
408.139	0.07
408.644	0.08
409.149	0.07
409.654	0.08
410.159	0.08
410.664	0.06
411.169	0.07
411.674	0.06
412.179	0.09
412.683	0.07
413.187	0.07
413.692	0.07
414.196	0.06
414.7	0.07
415.204	0.06
415.708	0.06
416.211	0.06
416.715	0.06
417.219	0.07
417.722	0.06
418.225	0.07
418.728	0.06
419.232	0.06
419.734	0.07
420.237	0.07
420.74	0.05
421.243	0.07
421.745	0.06
422.248	0.06
422.75	0.06
423.252	0.07
423.754	0.06
424.256	0.06
424.758	0.06
425.26	0.06
425.761	0.06
426.263	0.07
426.764	0.06
427.265	0.06
427.767	0.06
428.268	0.06
428.769	0.05
429.269	0.07
429.77	0.05
430.271	0.07
430.771	0.05
431.272	0.05
431.772	0.06
432.272	0.06
432.772	0.06
433.272	0.04
433.772	0.06
434.272	0.05
434.771	0.07
435.271	0.06
435.77	0.06
436.27	0.05
436.769	0.07
437.268	0.05
437.767	0.06
438.266	0.05
438.765	0.05
439.263	0.05
439.762	0.06
440.26	0.05
440.758	0.05
441.257	0.06
441.755	0.05
442.253	0.06
442.751	0.05
443.248	0.05
443.746	0.07
444.244	0.05
444.741	0.05
445.238	0.04
445.735	0.04
446.233	0.06
446.73	0.05
447.226	0.05
447.723	0.06
448.22	0.05
448.716	0.05
449.213	0.05
449.709	0.05
450.205	0.04
450.702	0.04
451.198	0.06
451.693	0.05
452.189	0.04
452.685	0.05
453.18	0.05
453.676	0.06
454.171	0.05
454.666	0.04
455.162	0.04
455.657	0.06
456.151	0.05
456.646	0.05
457.141	0.05
457.636	0.05
458.13	0.05
458.624	0.05
459.119	0.04
459.613	0.04
460.107	0.06
460.601	0.05
461.095	0.05
461.588	0.05
462.082	0.05
462.575	0.04
463.069	0.05
463.562	0.04
464.055	0.03
464.548	0.05
465.041	0.05
465.534	0.04
466.027	0.05
466.519	0.04
467.012	0.05
467.504	0.04
467.996	0.04
468.489	0.06
468.981	0.04
469.473	0.05
469.964	0.03
470.456	0.04
470.948	0.04
471.439	0.04
471.931	0.02
472.422	0.04
472.913	0.02
473.404	0.04
473.895	0.05
474.386	0.05
474.877	0.04
475.368	0.05
475.858	0.05
476.349	0.03
476.839	0.04
477.329	0.04
477.819	0.05
478.309	0.04
478.799	0.03
479.289	0.04
479.779	0.03
480.268	0.04
480.758	0.04
481.247	0.05
481.736	0.03
482.225	0.04
482.714	0.03
483.203	0.03
483.692	0.04
484.181	0.04
484.669	0.04
485.158	0.04
485.646	0.04
486.134	0.04
486.623	0.03
487.111	0.04
487.599	0.03
488.086	0.04
488.574	0.04
489.062	0.03
489.549	0.03
490.037	0.03
490.524	0.05
491.011	0.03
491.498	0.03
491.985	0.04
492.472	0.03
492.959	0.04
493.445	0.04
493.932	0.03
494.418	0.04
494.905	0.03
495.391	0.04
495.877	0.03
496.363	0.03
496.849	0.04
497.335	0.03
497.82	0.05
498.306	0.02
498.791	0.05
499.277	0.03
499.762	0.04
500.247	0.04
500.732	0.04
501.217	0.02
501.702	0.03
502.186	0.04
502.671	0.03
503.156	0.03
503.64	0.03
504.124	0.05
504.608	0.04
505.092	0.03
505.576	0.03
506.06	0.04
506.544	0.03
507.028	0.05
507.511	0.04
507.994	0.05
508.478	0.03
508.961	0.03
509.444	0.03
509.927	0.05
510.41	0.01
510.893	0.03
511.375	0.02
511.858	0.04
512.34	0.02
512.823	0.02
513.305	0.05
513.787	0.03
514.269	0.04
514.751	0.04
515.233	0.03
515.714	0.02
516.196	0.04
516.678	0.04
517.159	0.04
517.64	0.03
518.121	0.04
518.602	0.02
519.083	0.04
519.564	0.04
520.045	0.04
520.526	0.06
521.006	0.03
521.486	0.04
521.967	0.05
522.447	0.02
522.927	0.02
523.407	0.04
523.887	0.04
524.367	0.03
524.846	0.03
525.326	0.05
525.805	0.05
526.285	0.04
526.764	0.04
527.243	0.04
527.722	0.04
528.201	0.04
528.68	0.04
529.159	0.02
529.637	0.04
530.116	0.02
530.594	0.05
531.072	0.05
531.55	0.04
532.029	0.03
532.506	0.03
532.984	0.02
533.462	0.04
533.94	0.03
534.417	0.03
534.895	0.03
535.372	0.03
535.849	0.03
536.326	0.04
536.803	0.02
537.28	0.05
537.757	0.05
538.234	0.05
538.71	0.03
539.187	0.04
539.663	0.03
540.139	0.03
540.616	0.02
541.092	0.04
541.568	0.03
542.043	0.03
542.519	0.04
542.995	0.02
543.47	0.04
543.946	0.01
544.421	0.04
544.896	0.04
545.371	0.05
545.846	0.04
546.321	0.03
546.796	0.04
547.271	0.03
547.745	0.03
548.22	0.05
548.694	0.04
549.168	0.04
549.642	0.06
550.116	0.03
550.59	0.04
551.064	0.02
551.538	0.04
552.011	0.05
552.485	0.03
552.958	0.04
553.432	0.03
553.905	0.05
554.378	0.03
554.851	0.03
555.324	0.04
555.797	0.03
556.269	0.03
556.742	0.04
557.214	0.05
557.687	0.02
558.159	0.02
558.631	0.04
559.103	0.03
559.575	0.02
560.047	0.03
560.519	0.03
560.99	0.04
561.462	0.03
561.933	0.03
562.404	0.02
562.876	0.02
563.347	0.05
563.818	0.05
564.288	0.03
564.759	0.02
565.23	0.03
565.7	0.05
566.171	0.02
566.641	0.02
567.112	0.03
567.582	0.04
568.052	0.03
568.522	0.04
568.991	0.04
569.461	0.04
569.931	0.03
570.4	0.02
570.87	0.03
571.339	0.03
571.808	0.04
572.277	0.04
572.746	0.03
573.215	0.04
573.684	0.04
574.153	0.03
574.621	0.03
575.09	0.04
575.558	0.03
576.026	0.04
576.494	0.03
576.963	0.03
577.43	0.05
577.898	0.04
578.366	0.04
578.834	0.04
579.301	0.03
579.769	0.04
580.236	0.03
580.703	0.03
581.17	0.04
581.637	0.03
582.104	0.04
582.571	0.03
583.038	0.02
583.504	0.04
583.971	0.04
584.437	0.03
584.903	0.04
585.37	0.03
585.836	0.03
586.302	0.02
586.767	0.02
587.233	0.03
587.699	0.03
588.164	0.04
588.63	0.02
589.095	0.04
589.56	0.02
590.026	0.03
590.491	0.04
590.956	0.04
591.42	0.02
591.885	0.04
592.35	0.03
592.814	0.03
593.279	0.02
593.743	0.05
594.207	0.03
594.671	0.04
595.135	0.03
595.599	0.02
596.063	0.04
596.526	0.03
596.99	0.03
597.454	0.03
597.917	0.04
598.38	0.03
598.843	0.03
599.306	0.03
599.769	0.03
600.232	0.03
600.695	0.03
601.158	0.02
601.62	0.03
602.083	0.05
602.545	0.04
603.007	0.03
603.469	0.03
603.931	0.03
604.393	0.03
604.855	0.04
605.317	0.04
605.778	0.04
606.24	0.03
606.701	0.04
607.163	0.03
607.624	0.03
608.085	0.03
608.546	0.03
609.007	0.02
609.467	0.04
609.928	0.03
610.389	0.03
610.849	0.02
611.31	0.03
611.77	0.03
612.23	0.04
612.69	0.03
613.15	0.04
613.61	0.03
614.07	0.04
614.529	0.03
614.989	0.03
615.448	0.04
615.908	0.04
616.367	0.04
616.826	0.02
617.285	0.03
617.744	0.03
618.203	0.03
618.661	0.02
619.12	0.03
619.579	0.04
620.037	0.03
620.495	0.03
620.954	0.03
621.412	0.03
621.87	0.04
622.328	0.04
622.785	0.04
623.243	0.03
623.701	0.03
624.158	0.03
624.616	0.03
625.073	0.04
625.53	0.04
625.987	0.03
626.444	0.04
626.901	0.04
627.358	0.02
627.814	0.03
628.271	0.05
628.727	0.02
629.184	0.03
629.64	0.02
630.096	0.03
630.552	0.05
631.008	0.01
631.464	0.04
631.92	0.04
632.376	0.03
632.831	0.03
633.287	0.03
633.742	0.04
634.197	0.01
634.652	0.04
635.107	0.04
635.562	0.03
636.017	0.05
636.472	0.02
636.926	0.02
637.381	0.03
637.835	0.03
638.29	0.03
638.744	0.04
639.198	0.04
639.652	0.04
640.106	0.03
640.56	0.04
641.014	0.04
641.467	0.03
641.921	0.03
642.374	0.03
642.827	0.03
643.281	0.02
643.734	0.03
644.187	0.04
644.64	0.04
645.092	0.04
645.545	0.04
645.998	0.04
646.45	0.04
646.903	0.04
647.355	0.04
647.807	0.03
648.259	0.04
648.711	0.04
649.163	0.03
649.615	0.03
650.067	0.04
650.518	0.03
650.97	0.03
651.421	0.03
651.872	0.04
652.323	0.03
652.774	0.03
653.225	0.04
653.676	0.05
654.127	0.04
654.578	0.04
655.028	0.04
655.479	0.04
655.929	0.04
656.379	0.04
656.83	0.04
657.28	0.03
657.73	0.04
658.18	0.03
658.629	0.04
659.079	0.03
659.529	0.04
659.978	0.03
660.427	0.03
660.877	0.04
661.326	0.03
661.775	0.03
662.224	0.04
662.673	0.03
663.121	0.04
663.57	0.02
664.019	0.04
664.467	0.03
664.915	0.04
665.364	0.04
665.812	0.04
666.26	0.03
666.708	0.04
667.156	0.04
667.603	0.05
668.051	0.04
668.499	0.04
668.946	0.04
669.393	0.04
669.841	0.03
670.288	0.03
670.735	0.03
671.182	0.04
671.629	0.03
672.075	0.03
672.522	0.04
672.968	0.03
673.415	0.03
673.861	0.03
674.308	0.04
674.754	0.04
675.2	0.04
675.646	0.03
676.091	0.04
676.537	0.04
676.983	0.03
677.428	0.04
677.874	0.04
678.319	0.04
678.764	0.04
679.21	0.02
679.655	0.04
680.1	0.04
680.544	0.02
680.989	0.03
681.434	0.03
681.878	0.04
682.323	0.04
682.767	0.04
683.211	0.04
683.655	0.03
684.099	0.04
684.543	0.05
684.987	0.03
685.431	0.03
685.875	0.04
686.318	0.02
686.762	0.04
687.205	0.04
687.648	0.03
688.091	0.04
688.534	0.02
688.977	0.04
689.42	0.04
689.863	0.04
690.306	0.03
690.748	0.03
691.191	0.03
691.633	0.04
692.075	0.04
692.517	0.03
692.959	0.04
693.401	0.03
693.843	0.04
694.285	0.04
694.727	0.03
695.168	0.03
695.61	0.03
696.051	0.03
696.492	0.04
696.933	0.04
697.374	0.04
697.815	0.03
698.256	0.04
698.697	0.03
699.138	0.04
699.578	0.04
700.019	0.03
700.459	0.02
700.899	0.03
701.339	0.04
701.779	0.03
702.219	0.02
702.659	0.04
703.099	0.05
703.539	0.03
703.978	0.03
704.418	0.03
704.857	0.03
705.296	0.03
705.736	0.03
706.175	0.04
706.614	0.03
707.052	0.04
707.491	0.03
707.93	0.04
708.368	0.03
708.807	0.03
709.245	0.04
709.684	0.03
710.122	0.03
710.56	0.03
710.998	0.03
711.436	0.04
711.874	0.03
712.311	0.03
712.749	0.03
713.186	0.04
713.624	0.03
714.061	0.03
714.498	0.02
714.935	0.04
715.372	0.03
715.809	0.03
716.246	0.04
716.683	0.04
717.119	0.04
717.556	0.03
717.992	0.03
718.429	0.03
718.865	0.03
719.301	0.03
719.737	0.04
720.173	0.04
720.609	0.03
721.044	0.05
721.48	0.04
721.916	0.03
722.351	0.03
722.786	0.03
723.222	0.04
723.657	0.04
724.092	0.03
724.527	0.04
724.962	0.04
725.396	0.04
725.831	0.03
726.265	0.04
726.7	0.03
727.134	0.03
727.569	0.03
728.003	0.03
728.437	0.03
728.871	0.03
729.305	0.04
729.738	0.03
730.172	0.03
730.606	0.03
731.039	0.04
731.472	0.02
731.906	0.04
732.339	0.03
732.772	0.04
733.205	0.04
733.638	0.04
734.071	0.03
734.503	0.02
734.936	0.03
735.368	0.04
735.801	0.03
736.233	0.04
736.665	0.03
737.097	0.04
737.529	0.04
737.961	0.04
738.393	0.04
738.825	0.04
739.256	0.04
739.688	0.04
740.119	0.05
740.551	0.04
740.982	0.05
741.413	0.03
741.844	0.03
742.275	0.04
742.706	0.04
743.137	0.05
743.567	0.04
743.998	0.04
744.428	0.04
744.859	0.04
745.289	0.03
745.719	0.02
746.149	0.03
746.579	0.04
747.009	0.03
747.439	0.04
747.868	0.04
748.298	0.04
748.727	0.04
749.157	0.04
749.586	0.03
750.015	0.03
750.444	0.02
750.873	0.03
751.302	0.03
751.731	0.04
752.16	0.04
752.588	0.05
753.017	0.04
753.445	0.04
753.874	0.03
754.302	0.03
754.73	0.04
755.158	0.03
755.586	0.03
756.014	0.03
756.442	0.03
756.869	0.03
757.297	0.04
757.724	0.04
758.152	0.04
758.579	0.03
759.006	0.04
759.433	0.04
759.86	0.02
760.287	0.04
760.714	0.04
761.14	0.03
761.567	0.04
761.993	0.04
762.42	0.03
762.846	0.03
763.272	0.03
763.698	0.04
764.124	0.03
764.55	0.04
764.976	0.04
765.402	0.04
765.828	0.04
766.253	0.04
766.678	0.03
767.104	0.04
767.529	0.04
767.954	0.04
768.379	0.03
768.804	0.03
769.229	0.03
769.654	0.04
770.078	0.03
770.503	0.03
770.927	0.04
771.352	0.03
771.776	0.04
772.2	0.04
772.624	0.04
773.048	0.03
773.472	0.04
773.896	0.04
774.32	0.05
774.743	0.03
775.167	0.04
775.59	0.04
776.014	0.04
776.437	0.04
776.86	0.04
777.283	0.04
777.706	0.03
778.129	0.04
778.552	0.04
778.974	0.03
779.397	0.03
779.819	0.04
780.242	0.03
780.664	0.03
781.086	0.03
781.508	0.04
781.93	0.04
782.352	0.04
782.774	0.03
783.196	0.04
783.617	0.03
784.039	0.03
784.46	0.04
784.881	0.03
785.303	0.04
785.724	0.04
786.145	0.05
786.566	0.04
786.987	0.05
787.407	0.03
787.828	0.04
788.248	0.04
788.669	0.04
789.089	0.04
789.51	0.04
789.93	0.03
790.35	0.04
790.77	0.04
791.19	0.03
791.61	0.03
792.029	0.05
792.449	0.04
792.868	0.03
793.288	0.03
793.707	0.03
794.126	0.04
794.545	0.03
794.965	0.04
795.383	0.04
795.802	0.04
796.221	0.04
796.64	0.04
797.058	0.04
797.477	0.04
797.895	0.04
798.313	0.03
798.732	0.03
799.15	0.04
799.568	0.04
799.986	0.04
800.403	0.02
800.821	0.04
801.239	0.03
801.656	0.03
802.074	0.04
802.491	0.03
802.908	0.03
803.325	0.02
803.742	0.04
804.159	0.04
804.576	0.04
804.993	0.04
805.41	0.04
805.826	0.03
806.243	0.03
806.659	0.04
807.076	0.03
807.492	0.02
807.908	0.03
808.324	0.04
808.74	0.03
809.156	0.03
809.571	0.04
809.987	0.04
810.403	0.02
810.818	0.03
811.233	0.04
811.649	0.04
812.064	0.03
812.479	0.04
812.894	0.04
813.309	0.04
813.724	0.04
814.138	0.04
814.553	0.03
814.967	0.04
815.382	0.04
815.796	0.04
816.21	0.03
816.624	0.03
817.039	0.03
817.452	0.04
817.866	0.03
818.28	0.04
818.694	0.03
819.107	0.04
819.521	0.03
819.934	0.04
820.348	0.03
820.761	0.05
821.174	0.03
821.587	0.05
822	0.04
822.413	0.05
822.825	0.03
823.238	0.03
823.651	0.05
824.063	0.03
824.475	0.04
824.888	0.03
825.3	0.03
825.712	0.03
826.124	0.03
826.536	0.04
826.948	0.04
827.359	0.04
827.771	0.04
828.182	0.04
828.594	0.04
829.005	0.04
829.416	0.05
829.828	0.04
830.239	0.04
830.65	0.03
831.06	0.04
831.471	0.03
831.882	0.03
832.293	0.04
832.703	0.03
833.113	0.03
833.524	0.05
833.934	0.04
834.344	0.04
834.754	0.04
835.164	0.04
835.574	0.03
835.984	0.03
836.393	0.04
836.803	0.04
837.212	0.03
837.622	0.04
838.031	0.04
838.44	0.03
838.849	0.03
839.258	0.04
839.667	0.03
840.076	0.05
840.485	0.04
840.894	0.03
841.302	0.05
841.711	0.03
842.119	0.05
842.527	0.03
842.935	0.03
843.344	0.04
843.752	0.04
844.159	0.03
844.567	0.04
844.975	0.04
845.383	0.04
845.79	0.05
846.198	0.03
846.605	0.04
847.012	0.04
847.419	0.05
847.826	0.05
848.233	0.04
848.64	0.03
849.047	0.03
849.454	0.05
849.86	0.04
850.267	0.04
850.673	0.03
851.08	0.03
851.486	0.04
851.892	0.03
852.298	0.03
852.704	0.02
853.11	0.03
853.516	0.04
853.922	0.03
854.327	0.03
854.733	0.03
855.138	0.05
855.543	0.03
855.949	0.04
856.354	0.04
856.759	0.04
857.164	0.03
857.569	0.04
857.973	0.02
858.378	0.04
858.783	0.04
859.187	0.04
859.592	0.03
859.996	0.04
860.4	0.04
860.804	0.04
861.208	0.04
861.612	0.03
862.016	0.04
862.42	0.03
862.824	0.03
863.227	0.03
863.631	0.03
864.034	0.03
864.437	0.02
864.841	0.03
865.244	0.03
865.647	0.04
866.05	0.03
866.453	0.03
866.855	0.04
867.258	0.03
867.661	0.03
868.063	0.04
868.466	0.04
868.868	0.04
869.27	0.04
869.672	0.03
870.074	0.03
870.476	0.03
870.878	0.04
871.28	0.04
871.682	0.04
872.083	0.04
872.485	0.04
872.886	0.04
873.287	0.05
873.689	0.03
874.09	0.03
874.491	0.03
874.892	0.03
875.292	0.03
875.693	0.03
876.094	0.03
876.494	0.03
876.895	0.03
877.295	0.03
877.696	0.04
878.096	0.04
878.496	0.04
878.896	0.04
879.296	0.04
879.696	0.03
880.096	0.03
880.495	0.04
880.895	0.03
881.294	0.03
881.694	0.03
882.093	0.03
882.492	0.03
882.891	0.03
883.291	0.04
883.689	0.04
884.088	0.04
884.487	0.04
884.886	0.03
885.284	0.03
885.683	0.03
886.081	0.04
886.48	0.05
886.878	0.03
887.276	0.04
887.674	0.03
888.072	0.03
888.47	0.03
888.868	0.03
889.265	0.03
889.663	0.03
890.06	0.05
890.458	0.04
890.855	0.03
891.252	0.05
891.65	0.03
892.047	0.03
892.444	0.04
892.84	0.03
893.237	0.04
893.634	0.04
894.031	0.04
894.427	0.04
894.823	0.04
895.22	0.04
895.616	0.04
896.012	0.04
896.408	0.03
896.804	0.04
897.2	0.03
897.596	0.04
897.992	0.05
898.387	0.05
898.783	0.04
899.178	0.04
899.574	0.04
899.969	0.05
900.364	0.04
900.759	0.05
901.154	0.05
901.549	0.04
901.944	0.05
902.339	0.04
902.733	0.04
903.128	0.04
903.522	0.04
903.917	0.04
904.311	0.03
904.705	0.04
905.099	0.05
905.493	0.04
905.887	0.03
906.281	0.04
906.675	0.03
907.068	0.05
907.462	0.03
907.855	0.04
908.249	0.04
908.642	0.04
909.035	0.04
909.428	0.04
909.821	0.04
910.214	0.05
910.607	0.05
911	0.05
911.393	0.03
911.785	0.03
912.178	0.04
912.57	0.04
912.962	0.04
913.355	0.05
913.747	0.04
914.139	0.03
914.531	0.05
914.923	0.04
915.314	0.03
915.706	0.05
916.098	0.04
916.489	0.03
916.881	0.04
917.272	0.04
917.663	0.04
918.054	0.04
918.445	0.04
918.836	0.04
919.227	0.04
919.618	0.04
920.009	0.04
920.399	0.05
920.79	0.04
921.18	0.03
921.571	0.05
921.961	0.03
922.351	0.04
922.741	0.03
923.131	0.03
923.521	0.04
923.911	0.04
924.301	0.05
924.69	0.03
925.08	0.04
925.47	0.03
925.859	0.04
926.248	0.04
926.637	0.05
927.027	0.04
927.416	0.04
927.805	0.03
928.193	0.03
928.582	0.02
928.971	0.02
929.359	0.04
929.748	0.03
930.136	0.04
930.525	0.03
930.913	0.03
931.301	0.03
931.689	0.03
932.077	0.03
932.465	0.04
932.853	0.05
933.241	0.04
933.628	0.02
934.016	0.03
934.403	0.04
934.791	0.03
935.178	0.05
935.565	0.04
935.952	0.02
936.339	0.03
936.726	0.04
937.113	0.02
937.5	0.02
937.886	0.05
938.273	0.03
938.659	0.05
939.046	0.03
939.432	0.04
939.818	0.04
940.204	0.04
940.591	0.02
940.976	0.05
941.362	0.05
941.748	0.01
942.134	0.04
942.519	0.05
942.905	0.03
943.29	0.01
943.676	0.03
944.061	0.05
944.446	0.04
944.831	0.04
945.216	0.02
945.601	0.04
945.986	0.02
946.371	0.03
946.755	0.03
947.14	0.04
947.524	0.04
947.909	0.03
948.293	0.05
948.677	0.05
949.062	0.05
949.446	0.03
949.83	0.04
950.213	0.04
950.597	0.01
950.981	0.06
951.364	0.03
951.748	0.06
952.131	0.04
952.515	0.04
952.898	0.03
953.281	0.03
953.664	0.03
954.047	0.03
954.43	0.05
954.813	0.04
955.196	0.03
955.578	0.02
955.961	0.04
956.343	0.04
956.726	0.03
957.108	0.05
957.49	0.04
957.872	0.03
958.255	0.04
958.636	0.04
959.018	0.03
959.4	0.04
959.782	0.04
960.163	0.02
960.545	0.05
960.926	0.01
961.308	0.04
961.689	0.03
962.07	0.03
962.451	0.01
962.832	0.03
963.213	0.04
963.594	0.04
963.975	0.04
964.355	0.05
964.736	0.05
965.117	0.04
965.497	0.03
965.877	0.03
966.257	0.04
966.638	0.04
967.018	0.03
967.398	0.04
967.778	0.05
968.157	0.02
968.537	0.03
968.917	0.05
969.296	0.04
969.676	0.04
970.055	0.05
970.434	0.05
970.814	0.04
971.193	0.04
971.572	0.04
971.951	0.03
972.329	0.03
972.708	0.03
973.087	0.04
973.465	0.03
973.844	0.02
974.222	0.02
974.601	0.02
974.979	0.03
975.357	0.02
975.735	0.05
976.113	0.04
976.491	0.05
976.869	0.04
977.247	0.05
977.624	0.03
978.002	0.04
978.379	0.07
978.757	0.05
979.134	0.04
979.511	0.04
979.888	0.05
980.266	0.05
980.643	0.05
981.019	0.03
981.396	0.04
981.773	0.05
982.15	0.04
982.526	0.04
982.903	0.04
983.279	0.05
983.655	0.05
984.031	0.04
984.407	0.03
984.784	0.04
985.159	0.04
985.535	0.05
985.911	0.05
986.287	0.03
986.662	0.05
987.038	0.05
987.413	0.05
987.789	0.05
988.164	0.04
988.539	0.04
988.914	0.04
989.289	0.03
989.664	0.05
990.039	0.05
990.414	0.03
990.788	0.04
991.163	0.04
991.538	0.02
991.912	0.04
992.286	0.06
992.66	0.04
993.035	0.04
993.409	0.03
993.783	0.03
994.157	0.03
994.53	0.03
994.904	0.04
995.278	0.05
995.651	0.03
996.025	0.03
996.398	0.04
996.772	0.06
997.145	0.03
997.518	0.04
997.891	0.03
998.264	0.04
998.637	0.03
999.01	0.05
999.382	0.04
999.755	0.02
1000.128	0.05
1000.5	0.04
1000.872	0.01
1001.245	0.04
1001.617	0.04
1001.989	0.02
1002.361	0.06
1002.733	0.05
1003.105	0.04
1003.477	0.03
1003.848	0.04
1004.22	0.03
1004.592	0.05
1004.963	0.04
1005.334	0.04
1005.706	0.03
1006.077	0.04
1006.448	0.04
1006.819	0.04
1007.19	0.04
1007.561	0.04
1007.932	0.03
1008.302	0.03
1008.673	0.04
1009.044	0.05
1009.414	0.03
1009.784	0.03
1010.155	0.03
1010.525	0.05
1010.895	0.04
1011.265	0.04
1011.635	0.04
1012.005	0.03
1012.375	0.01
1012.744	0.04
1013.114	0.04
1013.483	0.05
1013.853	0.05
1014.222	0.03
1014.591	0.03
1014.961	0.03
1015.33	0.03
1015.699	0.04
1016.068	0.03
1016.437	0.03
1016.805	0.04
1017.174	0.01
1017.543	0.01
1017.911	0.05
1018.28	0.03
1018.648	0.03
1019.016	0.04
1019.384	0.02
1019.753	0.03
1020.121	0.05
1020.488	0.03
1020.856	0.05
1021.224	0.02
1021.592	0.02
1021.959	0.04
1022.327	0.03
1022.694	0.03
1023.062	0.02
1023.429	0.03
1023.796	0.05
1024.163	0.03
1024.53	0.04
1024.897	0.04
1025.264	0.02
1025.631	0.05
1025.998	0.04
1026.364	0.03
1026.731	0.03
1027.097	0.03
1027.464	0.04
1027.83	0.01
1028.196	0.04
1028.562	0.04
1028.928	0.03
1029.294	0.05
1029.66	0.03
1030.026	0.04
1030.391	0.02
1030.757	0.02
1031.123	0.03
1031.488	0.05
1031.853	0.02
1032.219	0.05
1032.584	0.03
1032.949	0.01
1033.314	0.04
1033.679	0.04
1034.044	0.04
1034.409	0.03
1034.773	0.02
1035.138	0.03
1035.502	0.05
1035.867	0.03
1036.231	0.04
1036.596	0.05
1036.96	0.04
1037.324	0.04
1037.688	0.05
1038.052	0.03
1038.416	0.05
1038.78	0.03
1039.143	0.03
1039.507	0.03
1039.871	0.06
1040.234	0.03
1040.597	0.04
1040.961	0.04
1041.324	0.05
1041.687	0.04
1042.05	0.03
1042.413	0.03
1042.776	0.03
1043.139	0.03
1043.502	-0
1043.864	0.03
1044.227	0.03
1044.589	0.03
1044.952	0.05
1045.314	0.06
1045.676	0.01
1046.038	0.03
1046.4	0.03
1046.762	0.04
1047.124	0.03
1047.486	0.03
1047.848	0.04
1048.21	0.04
1048.571	0.04
1048.933	0.02
1049.294	0.02
1049.655	0.04
1050.017	0.04
1050.378	0.03
1050.739	0.03
1051.1	0.01
1051.461	0.06
1051.822	0.02
1052.182	0.02
1052.543	0.04
1052.904	0.01
1053.264	0.03
1053.625	0.04
1053.985	0.02
1054.345	0
1054.706	0.05
1055.066	0.03
1055.426	0.02
1055.786	0.03
1056.145	0.03
1056.505	0.01
1056.865	0.03
1057.225	0
1057.584	0.02
1057.944	0.02
1058.303	0.01
1058.662	0.03
1059.021	0.01
1059.381	0
1059.74	0.02
1060.099	-0
1060.458	0.03
1060.816	0.01
1061.175	0.04
1061.534	0.05
1061.892	0.02
1062.251	0.01
1062.609	-0.01
1062.968	0.04
1063.326	0.06
1063.684	0.03
1064.042	0.02
1064.4	0.02
1064.758	0.05
1065.116	0.03
1065.474	0.01
1065.831	0
1066.189	0.04
1066.546	0.02
1066.904	0.05
1067.261	-0.02
1067.618	0.05
1067.976	0.04
1068.333	0.03
1068.69	0.03
1069.047	0
1069.404	0.03
1069.76	0.04
1070.117	0.01
1070.474	-0.01
1070.83	0.04
1071.187	-0.01
1071.543	0.05
1071.899	0.01
1072.256	0.03
1072.612	0.01
1072.968	0.04
1073.324	0.05
1073.68	0.04
1074.036	0.03
1074.391	0.01
1074.747	0.03
1075.103	0
1075.458	0.04
1075.813	0.04
1076.169	-0.01
1076.524	0.04
1076.879	0.05
1077.234	0.04
1077.589	0.02
1077.944	0.01
1078.299	0.02
1078.654	-0.01
1079.009	0.01
1079.363	0.04
1079.718	-0.02
1080.072	0.05
1080.427	0
1080.781	-0.02
1081.135	0.05
1081.489	0.05
1081.843	0.04
1082.197	0.03
1082.551	0.04
1082.905	0.02
1083.259	0.01
1083.613	0.06
1083.966	0.03
1084.32	0.03
1084.673	0.01
1085.026	0.09
1085.38	-0.03
1085.733	0.05
1086.086	-0.01
1086.439	0.07
1086.792	0.03
1087.145	0.05
1087.498	0.03
1087.85	0.02
1088.203	0.03
1088.555	0.08
1088.908	0.05
1089.26	-0
1089.613	-0.01
1089.965	0.05
1090.317	0.02
1090.669	0.02
1091.021	0
1091.373	-0.05
1091.725	-0.02
1092.076	0.03
1092.428	-0.01
1092.78	0.03
1093.131	-0
1093.483	0.01
1093.834	0.05
1094.185	0.07
1094.537	-0.01
1094.888	0.03
1095.239	0.03
1095.59	-0.05
1095.941	0.01
1096.291	0.03
1096.642	-0.04
1096.993	-0
1097.343	0
1097.694	0.07
1098.044	0.03
1098.394	-0
1098.745	-0
1099.095	0.01
1099.445	0.06
1099.795	-0
1100.145	0.02
1100.495	0.04
1100.845	0.11
1101.194	0.01
1101.544	0.04
1101.893	0.02
1102.243	0.05
1102.592	-0
1102.942	-0.01
1103.291	0.05
1103.64	0.03
1103.989	0.06
1104.338	-0.01
1104.687	0.02
1105.036	0.02
1105.384	0.02
1105.733	0.02
1106.082	0
1106.43	0.06
1106.779	-0.05
1107.127	0.03
1107.475	0.04
1107.823	-0
1108.172	-0.07
1108.52	0.2
1108.868	-0
1109.215	-0
1109.563	-0
