##TITLE=Spectrum
##JCAMP-DX=5.00 $$ chemotion-converter-app (1.7.0)
##DATA TYPE=SIZE EXCLUSION CHROMATOGRAPHY
##DATA CLASS=XYPOINTS
##ORIGIN=
##OWNER=
##XUNITS=MILLILITERS
##YUNITS=ARBITRARY UNITS
##LABEL=Vial   1: MS170_crude - 1
##COMMENTS=X:\Marvin Subarew\PAETMC Thiol-ene\MS170\2022-02-04 MS170_crudezoom.TXT
##DETEC1=I2: RI Detector 1, RI Signal
##DETEC2=I2: UV Detector 1, UV Signal
##DETEC3=I2: Pump 1, Sample Pump Pressure
##COL1=PSS SDV 5µm
##COL2=PSS SDV 5µm
##COL3=PSS SDV 5µm
##IN_VOL=50.000
##ELUENT=THF
##FLOW=1.000
##TEMPERATURE=35.000
##DATE=04/02/22
##TIME=11:40:47
##SOFTWARE=WINGPC
##VERSION=8#1
##OPERATOR=itcp-akt
##D=1.104E+0
##MZ1=2.835E+4
##MN=2.203E+4
##MP=2.620E+4
##MV=0.000E+0
##MW=2.432E+4
##MZ=2.642E+4
##VP=2.142E+1
##N=0.000E+0
##FIRSTX=2.01827E+1
##LASTX=2.84801E+1
##MINX=20.1827
##MAXX=28.4801
##MINY=0.0
##MAXY=5.12492
##NPOINTS=501
##FIRSTY=0.00000E+0
##XUNITS=MILLILITERS
##YUNITS=ARBITRARY UNITS
##XYPOINTS=(XY..XY)
2.01827E+1, 0.00000E+0
2.01993E+1, 0.00000E+0
2.02159E+1, 3.42125E-3
2.02325E+1, 1.24374E-3
2.02491E+1, 1.16724E-4
2.02657E+1, 0.00000E+0
2.02823E+1, 5.03231E-3
2.02989E+1, 1.96371E-2
2.03155E+1, 2.52135E-2
2.03321E+1, 2.67716E-2
2.03487E+1, 2.74017E-2
2.03653E+1, 2.44646E-2
2.03819E+1, 2.23660E-2
2.03985E+1, 2.36091E-2
2.04150E+1, 3.50466E-2
2.04316E+1, 3.84687E-2
2.04482E+1, 4.10354E-2
2.04648E+1, 5.06574E-2
2.04814E+1, 5.28589E-2
2.04980E+1, 5.42731E-2
2.05146E+1, 5.94052E-2
2.05312E+1, 7.30285E-2
2.05478E+1, 8.76378E-2
2.05644E+1, 9.98522E-2
2.05810E+1, 1.08721E-1
2.05976E+1, 1.22862E-1
2.06142E+1, 1.42967E-1
2.06308E+1, 1.64642E-1
2.06474E+1, 1.88744E-1
2.06640E+1, 2.07293E-1
2.06806E+1, 2.28803E-1
2.06972E+1, 2.52698E-1
2.07138E+1, 2.75267E-1
2.07303E+1, 3.10447E-1
2.07469E+1, 3.45346E-1
2.07635E+1, 3.66014E-1
2.07801E+1, 3.98833E-1
2.07967E+1, 4.37249E-1
2.08133E+1, 4.79870E-1
2.08299E+1, 5.21834E-1
2.08465E+1, 5.60530E-1
2.08631E+1, 6.01072E-1
2.08797E+1, 6.43502E-1
2.08963E+1, 6.92363E-1
2.09129E+1, 7.47863E-1
2.09295E+1, 8.10835E-1
2.09461E+1, 8.69211E-1
2.09627E+1, 9.28576E-1
2.09793E+1, 9.91696E-1
2.09959E+1, 1.06338E+0
2.10125E+1, 1.14361E+0
2.10291E+1, 1.22313E+0
2.10456E+1, 1.29197E+0
2.10622E+1, 1.35612E+0
2.10788E+1, 1.43402E+0
2.10954E+1, 1.52341E+0
2.11120E+1, 1.61206E+0
2.11286E+1, 1.70246E+0
2.11452E+1, 1.79157E+0
2.11618E+1, 1.88148E+0
2.11784E+1, 1.97100E+0
2.11950E+1, 2.06215E+0
2.12116E+1, 2.15354E+0
2.12282E+1, 2.23413E+0
2.12448E+1, 2.30534E+0
2.12614E+1, 2.37617E+0
2.12780E+1, 2.44372E+0
2.12946E+1, 2.51057E+0
2.13112E+1, 2.56709E+0
2.13278E+1, 2.61767E+0
2.13444E+1, 2.67310E+0
2.13609E+1, 2.71207E+0
2.13775E+1, 2.73080E+0
2.13941E+1, 2.74953E+0
2.14107E+1, 2.76436E+0
2.14273E+1, 2.76663E+0
2.14439E+1, 2.76099E+0
2.14605E+1, 2.75319E+0
2.14771E+1, 2.74009E+0
2.14937E+1, 2.72011E+0
2.15103E+1, 2.69016E+0
2.15269E+1, 2.65270E+0
2.15435E+1, 2.61805E+0
2.15601E+1, 2.58497E+0
2.15767E+1, 2.54144E+0
2.15933E+1, 2.48799E+0
2.16099E+1, 2.43409E+0
2.16265E+1, 2.38355E+0
2.16431E+1, 2.33631E+0
2.16597E+1, 2.28698E+0
2.16762E+1, 2.23111E+0
2.16928E+1, 2.16415E+0
2.17094E+1, 2.09744E+0
2.17260E+1, 2.04124E+0
2.17426E+1, 1.98203E+0
2.17592E+1, 1.92050E+0
2.17758E+1, 1.86357E+0
2.17924E+1, 1.81296E+0
2.18090E+1, 1.76017E+0
2.18256E+1, 1.68969E+0
2.18422E+1, 1.62173E+0
2.18588E+1, 1.56954E+0
2.18754E+1, 1.51691E+0
2.18920E+1, 1.46117E+0
2.19086E+1, 1.41242E+0
2.19252E+1, 1.35766E+0
2.19418E+1, 1.30828E+0
2.19584E+1, 1.27067E+0
2.19750E+1, 1.22766E+0
2.19915E+1, 1.18472E+0
2.20081E+1, 1.13978E+0
2.20247E+1, 1.09880E+0
2.20413E+1, 1.06563E+0
2.20579E+1, 1.03084E+0
2.20745E+1, 9.98277E-1
2.20911E+1, 9.65040E-1
2.21077E+1, 9.36334E-1
2.21243E+1, 9.02759E-1
2.21409E+1, 8.76036E-1
2.21575E+1, 8.49236E-1
2.21741E+1, 8.22310E-1
2.21907E+1, 7.98314E-1
2.22073E+1, 7.72000E-1
2.22239E+1, 7.46736E-1
2.22405E+1, 7.14697E-1
2.22571E+1, 6.84285E-1
2.22737E+1, 6.64051E-1
2.22902E+1, 6.49846E-1
2.23068E+1, 6.27829E-1
2.23234E+1, 6.06063E-1
2.23400E+1, 5.98866E-1
2.23566E+1, 5.74603E-1
2.23732E+1, 5.49444E-1
2.23898E+1, 5.28925E-1
2.24064E+1, 5.15195E-1
2.24230E+1, 5.11894E-1
2.24396E+1, 5.04067E-1
2.24562E+1, 4.80855E-1
2.24728E+1, 4.63145E-1
2.24894E+1, 4.51908E-1
2.25060E+1, 4.30273E-1
2.25226E+1, 4.15507E-1
2.25392E+1, 4.05808E-1
2.25558E+1, 3.94691E-1
2.25724E+1, 3.77879E-1
2.25890E+1, 3.65006E-1
2.26055E+1, 3.55181E-1
2.26221E+1, 3.54754E-1
2.26387E+1, 3.42066E-1
2.26553E+1, 3.28442E-1
2.26719E+1, 3.14895E-1
2.26885E+1, 3.03365E-1
2.27051E+1, 2.98272E-1
2.27217E+1, 2.89666E-1
2.27383E+1, 2.80118E-1
2.27549E+1, 2.67473E-1
2.27715E+1, 2.58653E-1
2.27881E+1, 2.48982E-1
2.28047E+1, 2.42034E-1
2.28213E+1, 2.34906E-1
2.28379E+1, 2.22779E-1
2.28545E+1, 2.00309E-1
2.28711E+1, 1.94415E-1
2.28877E+1, 1.95307E-1
2.29043E+1, 1.88536E-1
2.29208E+1, 1.78721E-1
2.29374E+1, 1.72385E-1
2.29540E+1, 1.58905E-1
2.29706E+1, 1.44737E-1
2.29872E+1, 1.48639E-1
2.30038E+1, 1.46526E-1
2.30204E+1, 1.39435E-1
2.30370E+1, 1.24735E-1
2.30536E+1, 1.15567E-1
2.30702E+1, 1.12084E-1
2.30868E+1, 9.98234E-2
2.31034E+1, 9.47329E-2
2.31200E+1, 9.57252E-2
2.31366E+1, 8.62215E-2
2.31532E+1, 8.29021E-2
2.31698E+1, 7.63856E-2
2.31864E+1, 7.22515E-2
2.32030E+1, 7.11722E-2
2.32196E+1, 6.67286E-2
2.32361E+1, 4.94361E-2
2.32527E+1, 4.81077E-2
2.32693E+1, 4.05276E-2
2.32859E+1, 4.48149E-2
2.33025E+1, 3.74994E-2
2.33191E+1, 3.00751E-2
2.33357E+1, 2.89742E-2
2.33523E+1, 2.30324E-2
2.33689E+1, 1.93355E-2
2.33855E+1, 2.57465E-2
2.34021E+1, 2.37806E-2
2.34187E+1, 1.85571E-2
2.34353E+1, 2.11787E-2
2.34519E+1, 9.81350E-3
2.34685E+1, 9.62791E-5
2.34851E+1, 1.15458E-2
2.35017E+1, 3.85119E-6
2.35183E+1, 6.16626E-3
2.35349E+1, 5.28980E-3
2.35514E+1, 1.75627E-2
2.35680E+1, 2.02396E-2
2.35846E+1, 2.68539E-2
2.36012E+1, 3.12434E-2
2.36178E+1, 3.08502E-2
2.36344E+1, 2.86690E-2
2.36510E+1, 3.69271E-2
2.36676E+1, 3.15347E-2
2.36842E+1, 4.14872E-2
2.37008E+1, 5.54659E-2
2.37174E+1, 4.97594E-2
2.37340E+1, 5.17370E-2
2.37506E+1, 5.16343E-2
2.37672E+1, 5.61358E-2
2.37838E+1, 5.42561E-2
2.38004E+1, 6.27793E-2
2.38170E+1, 7.02665E-2
2.38336E+1, 8.10617E-2
2.38501E+1, 9.25337E-2
2.38667E+1, 9.12847E-2
2.38833E+1, 8.01090E-2
2.38999E+1, 9.83033E-2
2.39165E+1, 1.08301E-1
2.39331E+1, 1.08919E-1
2.39497E+1, 1.37310E-1
2.39663E+1, 1.22065E-1
2.39829E+1, 1.38728E-1
2.39995E+1, 1.53085E-1
2.40161E+1, 1.68248E-1
2.40327E+1, 1.71620E-1
2.40493E+1, 1.78099E-1
2.40659E+1, 1.89545E-1
2.40825E+1, 2.12890E-1
2.40991E+1, 2.14269E-1
2.41157E+1, 2.23654E-1
2.41323E+1, 2.50694E-1
2.41489E+1, 2.63690E-1
2.41654E+1, 2.79709E-1
2.41820E+1, 2.92094E-1
2.41986E+1, 3.08883E-1
2.42152E+1, 3.18094E-1
2.42318E+1, 3.38862E-1
2.42484E+1, 3.53095E-1
2.42650E+1, 3.76672E-1
2.42816E+1, 4.08332E-1
2.42982E+1, 4.33572E-1
2.43148E+1, 4.70485E-1
2.43314E+1, 5.01254E-1
2.43480E+1, 5.32677E-1
2.43646E+1, 5.60394E-1
2.43812E+1, 6.05125E-1
2.43978E+1, 6.47325E-1
2.44144E+1, 6.87977E-1
2.44310E+1, 7.30619E-1
2.44476E+1, 7.78073E-1
2.44642E+1, 8.19690E-1
2.44807E+1, 8.67569E-1
2.44973E+1, 9.19133E-1
2.45139E+1, 9.72879E-1
2.45305E+1, 1.03700E+0
2.45471E+1, 1.10316E+0
2.45637E+1, 1.15496E+0
2.45803E+1, 1.21263E+0
2.45969E+1, 1.27259E+0
2.46135E+1, 1.32333E+0
2.46301E+1, 1.38082E+0
2.46467E+1, 1.44118E+0
2.46633E+1, 1.48713E+0
2.46799E+1, 1.54744E+0
2.46965E+1, 1.60817E+0
2.47131E+1, 1.65649E+0
2.47297E+1, 1.69791E+0
2.47463E+1, 1.74376E+0
2.47629E+1, 1.78880E+0
2.47795E+1, 1.82267E+0
2.47960E+1, 1.86013E+0
2.48126E+1, 1.89768E+0
2.48292E+1, 1.92597E+0
2.48458E+1, 1.94946E+0
2.48624E+1, 1.97399E+0
2.48790E+1, 1.98548E+0
2.48956E+1, 1.98522E+0
2.49122E+1, 1.99720E+0
2.49288E+1, 2.00108E+0
2.49454E+1, 2.00377E+0
2.49620E+1, 2.00473E+0
2.49786E+1, 1.99433E+0
2.49952E+1, 1.98416E+0
2.50118E+1, 1.96684E+0
2.50284E+1, 1.94949E+0
2.50450E+1, 1.92866E+0
2.50616E+1, 1.90161E+0
2.50782E+1, 1.88149E+0
2.50948E+1, 1.84609E+0
2.51113E+1, 1.81717E+0
2.51279E+1, 1.79512E+0
2.51445E+1, 1.76319E+0
2.51611E+1, 1.74192E+0
2.51777E+1, 1.71628E+0
2.51943E+1, 1.68331E+0
2.52109E+1, 1.65728E+0
2.52275E+1, 1.62663E+0
2.52441E+1, 1.59751E+0
2.52607E+1, 1.57628E+0
2.52773E+1, 1.55152E+0
2.52939E+1, 1.52581E+0
2.53105E+1, 1.50545E+0
2.53271E+1, 1.49577E+0
2.53437E+1, 1.48800E+0
2.53603E+1, 1.48989E+0
2.53769E+1, 1.49803E+0
2.53935E+1, 1.49555E+0
2.54100E+1, 1.48714E+0
2.54266E+1, 1.49427E+0
2.54432E+1, 1.51248E+0
2.54598E+1, 1.52834E+0
2.54764E+1, 1.54768E+0
2.54930E+1, 1.57390E+0
2.55096E+1, 1.60470E+0
2.55262E+1, 1.63987E+0
2.55428E+1, 1.68440E+0
2.55594E+1, 1.72460E+0
2.55760E+1, 1.76410E+0
2.55926E+1, 1.81569E+0
2.56092E+1, 1.87971E+0
2.56258E+1, 1.93538E+0
2.56424E+1, 1.99040E+0
2.56590E+1, 2.05573E+0
2.56756E+1, 2.12059E+0
2.56922E+1, 2.19468E+0
2.57088E+1, 2.26889E+0
2.57253E+1, 2.35226E+0
2.57419E+1, 2.43214E+0
2.57585E+1, 2.50479E+0
2.57751E+1, 2.58989E+0
2.57917E+1, 2.67339E+0
2.58083E+1, 2.75660E+0
2.58249E+1, 2.84319E+0
2.58415E+1, 2.94140E+0
2.58581E+1, 3.04452E+0
2.58747E+1, 3.13274E+0
2.58913E+1, 3.21992E+0
2.59079E+1, 3.30748E+0
2.59245E+1, 3.39296E+0
2.59411E+1, 3.47157E+0
2.59577E+1, 3.57033E+0
2.59743E+1, 3.65946E+0
2.59909E+1, 3.73593E+0
2.60075E+1, 3.81696E+0
2.60241E+1, 3.89543E+0
2.60406E+1, 3.96840E+0
2.60572E+1, 4.03922E+0
2.60738E+1, 4.10899E+0
2.60904E+1, 4.15713E+0
2.61070E+1, 4.20535E+0
2.61236E+1, 4.26943E+0
2.61402E+1, 4.31366E+0
2.61568E+1, 4.35578E+0
2.61734E+1, 4.39428E+0
2.61900E+1, 4.41193E+0
2.62066E+1, 4.44957E+0
2.62232E+1, 4.47319E+0
2.62398E+1, 4.49037E+0
2.62564E+1, 4.50360E+0
2.62730E+1, 4.50331E+0
2.62896E+1, 4.49765E+0
2.63062E+1, 4.48008E+0
2.63228E+1, 4.46760E+0
2.63394E+1, 4.44777E+0
2.63559E+1, 4.41943E+0
2.63725E+1, 4.39008E+0
2.63891E+1, 4.35030E+0
2.64057E+1, 4.31448E+0
2.64223E+1, 4.25950E+0
2.64389E+1, 4.21442E+0
2.64555E+1, 4.16792E+0
2.64721E+1, 4.09866E+0
2.64887E+1, 4.05131E+0
2.65053E+1, 4.00049E+0
2.65219E+1, 3.92859E+0
2.65385E+1, 3.86664E+0
2.65551E+1, 3.79129E+0
2.65717E+1, 3.70749E+0
2.65883E+1, 3.63935E+0
2.66049E+1, 3.55527E+0
2.66215E+1, 3.47797E+0
2.66381E+1, 3.41543E+0
2.66547E+1, 3.33974E+0
2.66712E+1, 3.26302E+0
2.66878E+1, 3.17023E+0
2.67044E+1, 3.08530E+0
2.67210E+1, 3.00038E+0
2.67376E+1, 2.90884E+0
2.67542E+1, 2.83575E+0
2.67708E+1, 2.73966E+0
2.67874E+1, 2.65114E+0
2.68040E+1, 2.56667E+0
2.68206E+1, 2.46124E+0
2.68372E+1, 2.38304E+0
2.68538E+1, 2.29244E+0
2.68704E+1, 2.19573E+0
2.68870E+1, 2.09584E+0
2.69036E+1, 2.00625E+0
2.69202E+1, 1.93243E+0
2.69368E+1, 1.83229E+0
2.69534E+1, 1.74491E+0
2.69700E+1, 1.65544E+0
2.69865E+1, 1.57500E+0
2.70031E+1, 1.48892E+0
2.70197E+1, 1.42065E+0
2.70363E+1, 1.33472E+0
2.70529E+1, 1.26244E+0
2.70695E+1, 1.19338E+0
2.70861E+1, 1.11323E+0
2.71027E+1, 1.05942E+0
2.71193E+1, 9.87808E-1
2.71359E+1, 9.39090E-1
2.71525E+1, 8.79147E-1
2.71691E+1, 8.15666E-1
2.71857E+1, 7.43363E-1
2.72023E+1, 7.06022E-1
2.72189E+1, 6.66199E-1
2.72355E+1, 6.29965E-1
2.72521E+1, 5.86109E-1
2.72687E+1, 5.51703E-1
2.72852E+1, 5.03634E-1
2.73018E+1, 4.59490E-1
2.73184E+1, 4.37194E-1
2.73350E+1, 3.99387E-1
2.73516E+1, 3.57525E-1
2.73682E+1, 3.26381E-1
2.73848E+1, 2.99911E-1
2.74014E+1, 2.69376E-1
2.74180E+1, 2.49550E-1
2.74346E+1, 2.44533E-1
2.74512E+1, 2.04185E-1
2.74678E+1, 1.92680E-1
2.74844E+1, 1.67461E-1
2.75010E+1, 1.59545E-1
2.75176E+1, 1.40859E-1
2.75342E+1, 1.18866E-1
2.75508E+1, 1.13962E-1
2.75674E+1, 1.15229E-1
2.75840E+1, 9.51403E-2
2.76005E+1, 1.12387E-1
2.76171E+1, 1.06367E-1
2.76337E+1, 1.07268E-1
2.76503E+1, 1.24790E-1
2.76669E+1, 1.44732E-1
2.76835E+1, 1.80656E-1
2.77001E+1, 2.28571E-1
2.77167E+1, 2.89250E-1
2.77333E+1, 3.45029E-1
2.77499E+1, 4.26610E-1
2.77665E+1, 5.33976E-1
2.77831E+1, 6.52200E-1
2.77997E+1, 7.97175E-1
2.78163E+1, 9.69311E-1
2.78329E+1, 1.16474E+0
2.78495E+1, 1.39121E+0
2.78661E+1, 1.65000E+0
2.78827E+1, 1.94535E+0
2.78993E+1, 2.27984E+0
2.79158E+1, 2.63040E+0
2.79324E+1, 3.00614E+0
2.79490E+1, 3.39264E+0
2.79656E+1, 3.76234E+0
2.79822E+1, 4.12695E+0
2.79988E+1, 4.46627E+0
2.80154E+1, 4.74313E+0
2.80320E+1, 4.95817E+0
2.80486E+1, 5.09032E+0
2.80652E+1, 5.12492E+0
2.80818E+1, 5.06444E+0
2.80984E+1, 4.91823E+0
2.81150E+1, 4.69084E+0
2.81316E+1, 4.39046E+0
2.81482E+1, 4.05094E+0
2.81648E+1, 3.68261E+0
2.81814E+1, 3.29586E+0
2.81980E+1, 2.90026E+0
2.82146E+1, 2.51594E+0
2.82311E+1, 2.16406E+0
2.82477E+1, 1.83109E+0
2.82643E+1, 1.53628E+0
2.82809E+1, 1.27277E+0
2.82975E+1, 1.02740E+0
2.83141E+1, 8.20291E-1
2.83307E+1, 6.38221E-1
2.83473E+1, 4.86749E-1
2.83639E+1, 3.72407E-1
2.83805E+1, 2.79380E-1
2.83971E+1, 1.93193E-1
2.84137E+1, 1.22985E-1
2.84303E+1, 6.92255E-2
2.84469E+1, 4.19736E-2
2.84635E+1, 2.29241E-2
2.84801E+1, 0.00000E+0
##END=$$ End of the data block
