#Wave		#Intensity
1298.302734	85368.257813
1297.214844	85391.882813
1296.126953	85369.546875
1295.039063	85334.093750
1293.951172	85187.406250
1292.862305	85170.648438
1291.773438	85082.289063
1290.684570	85187.992188
1289.594727	85107.851563
1288.505859	84987.531250
1287.416016	84772.820313
1286.326172	84736.335938
1285.236328	84879.195313
1284.146484	84578.734375
1283.055664	84516.898438
1281.964844	84568.742188
1280.874023	84864.070313
1279.783203	84796.546875
1278.691406	84639.468750
1277.600586	84400.414063
1276.508789	84300.187500
1275.416992	84409.398438
1274.324219	84460.914063
1273.232422	84453.914063
1272.139648	84468.875000
1271.046875	84466.648438
1269.954102	84358.210938
1268.861328	84232.250000
1267.767578	84197.234375
1266.673828	84206.781250
1265.580078	84095.992188
1264.486328	84043.414063
1263.391602	84114.335938
1262.297852	84090.578125
1261.203125	83988.523438
1260.108398	83913.328125
1259.012695	83891.062500
1257.917969	83857.195313
1256.822266	83831.164063
1255.726563	83737.179688
1254.630859	83562.007813
1253.535156	83528.515625
1252.438477	83521.039063
1251.341797	83531.265625
1250.245117	83452.609375
1249.148438	83399.468750
1248.050781	83339.226563
1246.954102	83287.921875
1245.856445	83145.265625
1244.758789	83028.968750
1243.660156	82996.023438
1242.562500	83144.085938
1241.463867	83088.304688
1240.365234	83018.304688
1239.266602	83122.453125
1238.166992	83260.351563
1237.068359	83182.695313
1235.968750	83023.054688
1234.869141	82989.656250
1233.769531	82919.742188
1232.668945	82881.468750
1231.568359	82926.359375
1230.468750	82927.671875
1229.367188	82890.726563
1228.266602	82693.945313
1227.165039	82654.445313
1226.064453	82775.765625
1224.962891	82709.835938
1223.860352	82617.070313
1222.758789	82605.671875
1221.656250	82651.085938
1220.554688	82665.171875
1219.451172	82730.242188
1218.348633	82678.453125
1217.246094	82613.390625
1216.142578	82629.539063
1215.039063	82583.382813
1213.935547	82517.773438
1212.831055	82597.789063
1211.727539	82682.539063
1210.623047	82580.117188
1209.518555	82496.484375
1208.414063	82517.062500
1207.308594	82571.187500
1206.204102	82525.960938
1205.098633	82449.687500
1203.993164	82395.515625
1202.886719	82432.703125
1201.781250	82484.296875
1200.674805	82490.109375
1199.568359	82407.476563
1198.461914	82384.320313
1197.354492	82356.484375
1196.248047	82393.476563
1195.140625	82423.132813
1194.033203	82384.070313
1192.924805	82409.101563
1191.817383	82429.304688
1190.708984	82424.625000
1189.600586	82344.359375
1188.492188	82369.625000
1187.383789	82373.039063
1186.274414	82382.015625
1185.165039	82379.843750
1184.055664	82387.976563
1182.946289	82322.000000
1181.836914	82414.171875
1180.726563	82372.156250
1179.616211	82405.367188
1178.505859	82177.523438
1177.394531	82185.382813
1176.284180	82085.656250
1175.172852	82164.960938
1174.061523	82084.859375
1172.950195	82086.335938
1171.837891	82112.000000
1170.726563	82086.343750
1169.614258	81981.031250
1168.501953	81870.984375
1167.389648	81789.679688
1166.276367	81796.164063
1165.163086	81822.304688
1164.049805	81807.054688
1162.936523	81676.515625
1161.823242	81605.257813
1160.708984	81680.726563
1159.594727	81732.296875
1158.480469	81672.804688
1157.366211	81493.718750
1156.250977	81425.812500
1155.136719	81323.648438
1154.021484	81315.851563
1152.906250	81169.718750
1151.790039	81126.671875
1150.674805	81092.390625
1149.558594	81130.296875
1148.442383	80965.296875
1147.325195	80895.437500
1146.208984	80777.000000
1145.091797	80587.937500
1143.974609	80510.015625
1142.857422	80600.453125
1141.740234	80603.140625
1140.622070	80418.953125
1139.503906	80363.031250
1138.385742	80320.765625
1137.267578	80149.726563
1136.149414	79970.187500
1135.030273	79882.671875
1133.911133	80002.273438
1132.791992	80068.593750
1131.671875	80073.781250
1130.552734	79980.101563
1129.432617	79873.171875
1128.312500	79697.476563
1127.192383	79501.328125
1126.071289	79529.445313
1124.951172	79543.523438
1123.830078	79473.882813
1122.708984	79399.914063
1121.586914	79426.335938
1120.465820	79349.156250
1119.343750	79191.875000
1118.221680	79125.796875
1117.099609	79291.109375
1115.976563	79307.132813
1114.854492	79164.187500
1113.731445	78952.945313
1112.608398	78935.093750
1111.484375	78969.234375
1110.361328	78879.359375
1109.237305	78733.710938
1108.113281	78704.156250
1106.989258	78775.187500
1105.864258	78793.789063
1104.740234	78627.226563
1103.615234	78514.945313
1102.490234	78403.898438
1101.364258	78349.414063
1100.239258	78315.484375
1099.113281	78234.007813
1097.987305	78291.617188
1096.861328	78229.000000
1095.734375	78260.390625
1094.607422	78213.937500
1093.481445	78195.984375
1092.353516	78061.664063
1091.226563	78017.773438
1090.098633	78009.476563
1088.971680	77964.265625
1087.843750	78028.125000
1086.714844	78096.226563
1085.586914	78118.031250
1084.458008	78080.640625
1083.329102	78098.609375
1082.200195	78009.429688
1081.071289	77878.804688
1079.941406	77774.656250
1078.811523	77747.585938
1077.681641	77790.695313
1076.551758	77836.757813
1075.421875	77836.375000
1074.291016	77770.539063
1073.160156	77691.546875
1072.029297	77699.117188
1070.898438	77685.906250
1069.766602	77590.992188
1068.634766	77491.664063
1067.502930	77449.515625
1066.371094	77443.437500
1065.238281	77466.859375
1064.106445	77590.835938
1062.973633	77527.921875
1061.839844	77508.914063
1060.707031	77492.906250
1059.573242	77417.273438
1058.440430	77220.718750
1057.305664	77078.687500
1056.171875	77055.726563
1055.038086	77014.992188
1053.903320	77003.492188
1052.768555	76961.843750
1051.633789	76905.375000
1050.498047	76836.750000
1049.363281	76818.023438
1048.227539	76767.398438
1047.091797	76679.015625
1045.955078	76502.500000
1044.819336	76424.859375
1043.682617	76351.804688
1042.545898	76341.617188
1041.409180	76343.484375
1040.271484	76304.968750
1039.134766	76302.437500
1037.997070	76221.273438
1036.859375	76098.273438
1035.720703	75902.218750
1034.583008	75920.406250
1033.444336	75984.625000
1032.305664	76019.367188
1031.166016	75915.843750
1030.027344	75885.671875
1028.887695	75850.140625
1027.748047	75852.015625
1026.608398	75686.453125
1025.468750	75580.257813
1024.328125	75536.343750
1023.187500	75542.937500
1022.046875	75423.406250
1020.906250	75382.296875
1019.764648	75368.132813
1018.623047	75282.335938
1017.482422	75047.859375
1016.339844	74994.445313
1015.198242	74975.593750
1014.055664	75082.031250
1012.913086	75027.609375
1011.770508	74971.046875
1010.627930	74847.078125
1009.484375	74823.039063
1008.340820	74860.507813
1007.197266	74782.343750
1006.053711	74691.140625
1004.910156	74621.296875
1003.765625	74597.109375
1002.621094	74462.945313
1001.476563	74461.187500
1000.331055	74527.203125
999.186523	74410.960938
998.041016	74241.335938
996.895508	74211.085938
995.749023	74261.453125
994.603516	74204.257813
993.457031	74211.570313
992.310547	74130.250000
991.164063	74001.898438
990.016602	73968.429688
988.869141	73992.601563
987.722656	73967.914063
986.574219	73930.679688
985.426758	73924.093750
984.278320	73905.703125
983.129883	73910.156250
981.981445	73909.453125
980.833008	73774.265625
979.684570	73594.054688
978.535156	73642.679688
977.385742	73643.320313
976.236328	73649.539063
975.085938	73524.226563
973.935547	73639.976563
972.785156	73586.289063
971.634766	73508.804688
970.484375	73380.140625
969.333008	73491.531250
968.181641	73537.242188
967.030273	73551.570313
965.878906	73352.640625
964.727539	73269.757813
963.575195	73183.835938
962.422852	73217.617188
961.270508	73147.593750
960.117188	73168.492188
958.963867	73148.500000
957.810547	73034.375000
956.657227	72945.687500
955.503906	72882.773438
954.349609	72859.234375
953.195313	72898.359375
952.041016	72967.242188
950.886719	72950.851563
949.732422	72885.742188
948.577148	72904.070313
947.421875	72900.273438
946.266602	72766.617188
945.110352	72718.554688
943.954102	72743.578125
942.797852	72690.273438
941.641602	72590.945313
940.485352	72521.218750
939.328125	72564.984375
938.170898	72507.656250
937.013672	72542.492188
935.856445	72486.031250
934.698242	72436.117188
933.541016	72273.226563
932.382813	72197.585938
931.223633	72181.984375
930.065430	72274.039063
928.906250	72165.890625
927.747070	72003.656250
926.587891	71865.109375
925.428711	71843.835938
924.268555	71770.140625
923.108398	71604.890625
921.948242	71589.046875
920.787109	71559.335938
919.626953	71567.789063
918.465820	71492.085938
917.304688	71363.320313
916.143555	71196.140625
914.981445	71178.515625
913.819336	71183.015625
912.657227	71066.382813
911.495117	70921.882813
910.333008	70863.656250
909.169922	70789.945313
908.006836	70814.523438
906.843750	70807.992188
905.680664	70722.781250
904.516602	70630.921875
903.352539	70586.492188
902.188477	70526.125000
901.024414	70479.195313
899.859375	70435.343750
898.694336	70324.812500
897.529297	70203.351563
896.364258	70167.359375
895.198242	70108.984375
894.033203	69984.898438
892.867188	69893.960938
891.700195	70001.875000
890.534180	70001.312500
889.367188	69954.093750
888.200195	69837.843750
887.033203	69806.531250
885.866211	69727.710938
884.698242	69773.828125
883.530273	69780.093750
882.362305	69767.359375
881.194336	69635.234375
880.025391	69479.015625
878.856445	69353.945313
877.687500	69379.570313
876.518555	69344.148438
875.349609	69256.078125
874.179688	69206.539063
873.009766	69152.335938
871.839844	69113.757813
870.668945	69065.140625
869.498047	69014.031250
868.328125	68972.031250
867.156250	68950.617188
865.985352	68940.687500
864.813477	68864.984375
863.641602	68899.898438
862.469727	68963.468750
861.297852	68965.773438
860.125000	68849.656250
858.952148	68777.117188
857.779297	68819.007813
856.606445	68929.906250
855.433594	68849.796875
854.259766	68739.445313
853.085938	68650.250000
851.911133	68694.562500
850.737305	68612.539063
849.562500	68638.101563
848.387695	68668.867188
847.212891	68674.414063
846.038086	68578.898438
844.862305	68493.382813
843.686523	68484.085938
842.510742	68501.617188
841.333984	68452.054688
840.158203	68380.164063
838.981445	68337.476563
837.804688	68283.265625
836.626953	68275.898438
835.450195	68250.757813
834.272461	68171.726563
833.094727	68088.312500
831.916016	68036.234375
830.738281	68004.023438
829.559570	67909.203125
828.380859	67916.546875
827.202148	67871.078125
826.022461	67939.578125
824.842773	67938.054688
823.663086	67888.562500
822.483398	67830.945313
821.303711	67844.023438
820.123047	67779.484375
818.942383	67588.062500
817.761719	67547.718750
816.580078	67574.734375
815.399414	67544.351563
814.217773	67451.953125
813.036133	67419.679688
811.853516	67476.929688
810.671875	67506.835938
809.489258	67451.773438
808.306641	67306.515625
807.123047	67256.593750
805.940430	67160.171875
804.756836	67083.054688
803.573242	67016.273438
802.388672	67005.070313
801.205078	66963.976563
800.020508	66971.187500
798.835938	66969.085938
797.651367	66980.000000
796.465820	66934.164063
795.280273	66876.593750
794.094727	66786.140625
792.909180	66762.343750
791.722656	66759.195313
790.537109	66785.171875
789.350586	66741.921875
788.163086	66684.234375
786.976563	66619.812500
785.789063	66595.726563
784.601563	66585.484375
783.414063	66535.929688
782.226563	66449.968750
781.038086	66387.171875
779.849609	66418.070313
778.661133	66303.000000
777.471680	66261.367188
776.283203	66330.460938
775.093750	66371.453125
773.904297	66198.851563
772.713867	66109.250000
771.524414	66131.148438
770.333984	66163.437500
769.143555	66084.218750
767.952148	66042.265625
766.761719	65984.250000
765.570313	65974.500000
764.378906	65940.109375
763.186523	65946.906250
761.995117	65941.804688
760.802734	65847.726563
759.610352	65759.210938
758.417969	65774.171875
757.224609	65737.078125
756.031250	65654.250000
754.837891	65579.515625
753.644531	65577.429688
752.450195	65636.968750
751.256836	65659.132813
750.062500	65573.148438
748.867188	65389.867188
747.672852	65313.328125
746.477539	65251.941406
745.282227	65269.804688
744.086914	65336.648438
742.890625	65366.316406
741.695313	65324.265625
740.499023	65289.796875
739.301758	65212.066406
738.105469	65183.515625
736.908203	65191.769531
735.710938	65125.089844
734.513672	64966.851563
733.315430	64910.027344
732.118164	65011.214844
730.919922	64984.468750
729.721680	64913.988281
728.522461	64808.457031
727.323242	64707.390625
726.124023	64645.718750
724.924805	64576.675781
723.725586	64525.972656
722.525391	64460.859375
721.325195	64536.613281
720.125000	64450.156250
718.924805	64394.226563
717.723633	64265.246094
716.522461	64256.101563
715.321289	64182.890625
714.119141	64110.371094
712.917969	63940.160156
711.715820	63844.101563
710.513672	63918.535156
709.310547	63992.554688
708.108398	63931.800781
706.905273	63747.273438
705.702148	63686.308594
704.498047	63709.101563
703.294922	63620.089844
702.090820	63556.968750
700.886719	63537.511719
699.681641	63569.097656
698.477539	63542.468750
697.272461	63472.062500
696.067383	63239.679688
694.861328	63119.394531
693.656250	63132.593750
692.450195	63219.566406
691.244141	63130.347656
690.037109	63117.355469
688.831055	63029.816406
687.624023	62993.378906
686.416992	62966.007813
685.208984	62988.324219
684.001953	62929.343750
682.793945	62818.589844
681.585938	62784.429688
680.376953	62760.941406
679.168945	62746.769531
677.959961	62651.812500
676.750977	62687.785156
675.541016	62701.449219
674.332031	62677.332031
673.122070	62469.718750
671.912109	62474.175781
670.701172	62487.652344
669.491211	62567.976563
668.280273	62445.851563
667.069336	62361.066406
665.857422	62254.136719
664.646484	62270.757813
663.434570	62326.363281
662.222656	62352.609375
661.009766	62282.613281
659.797852	62280.222656
658.584961	62223.339844
657.372070	62188.539063
656.158203	62088.093750
654.945313	62082.023438
653.731445	62022.664063
652.517578	62013.089844
651.302734	61995.203125
650.088867	61912.250000
648.874023	61843.906250
647.659180	61866.269531
646.443359	61873.109375
645.227539	61788.828125
644.012695	61732.648438
642.795898	61635.460938
641.580078	61560.605469
640.363281	61451.402344
639.146484	61500.464844
637.929688	61473.890625
636.712891	61492.328125
635.495117	61373.250000
634.277344	61326.179688
633.059570	61243.648438
631.841797	61226.828125
630.623047	61093.113281
629.404297	60993.738281
628.185547	60903.054688
626.965820	61013.222656
625.747070	61018.328125
624.527344	60868.136719
623.307617	60678.312500
622.086914	60592.035156
620.866211	60673.675781
619.646484	60736.625000
618.424805	60719.824219
617.204102	60571.617188
615.982422	60455.082031
614.760742	60388.078125
613.539063	60312.890625
612.316406	60258.871094
611.094727	60199.957031
609.872070	60213.203125
608.648438	60145.738281
607.425781	60025.140625
606.202148	59991.574219
604.978516	59952.621094
603.754883	59940.925781
602.530273	59795.203125
601.306641	59795.339844
600.082031	59728.203125
598.856445	59752.218750
597.631836	59580.406250
596.406250	59511.101563
595.180664	59424.136719
593.955078	59423.308594
592.728516	59318.859375
591.501953	59262.179688
590.275391	59228.476563
589.048828	59222.140625
587.821289	59161.847656
586.593750	59109.652344
585.366211	59061.410156
584.138672	58968.160156
582.910156	58959.042969
581.681641	58966.656250
580.453125	58879.437500
579.224609	58787.957031
577.995117	58757.941406
576.765625	58797.410156
575.536133	58771.464844
574.306641	58737.703125
573.076172	58643.351563
571.845703	58645.531250
570.615234	58653.671875
569.383789	58636.304688
568.153320	58610.523438
566.921875	58636.804688
565.690430	58564.328125
564.458008	58538.835938
563.225586	58552.167969
561.993164	58609.476563
560.760742	58568.492188
559.528320	58525.675781
558.294922	58511.437500
557.061523	58479.625000
555.828125	58460.382813
554.593750	58419.171875
553.359375	58497.871094
552.125000	58489.054688
550.890625	58417.863281
549.655273	58270.792969
548.419922	58317.121094
547.184570	58276.675781
545.949219	58227.984375
544.712891	58153.222656
543.477539	58115.597656
542.240234	58074.980469
541.003906	57983.238281
539.766602	57956.546875
538.529297	57846.984375
537.291992	57887.777344
536.054688	57854.367188
534.816406	57747.742188
533.578125	57673.574219
532.339844	57664.300781
531.101563	57650.457031
529.862305	57537.195313
528.623047	57527.312500
527.383789	57492.726563
526.143555	57465.257813
524.903320	57376.042969
523.663086	57296.011719
522.422852	57175.589844
521.181641	57127.804688
519.941406	57165.210938
518.700195	57186.648438
517.458008	57063.761719
516.216797	56903.101563
514.974609	56839.253906
513.732422	56844.171875
512.489258	56738.394531
511.247070	56662.832031
510.003906	56654.417969
508.760742	56703.976563
507.516602	56613.734375
506.272461	56550.914063
505.029297	56531.667969
503.784180	56576.347656
502.540039	56591.132813
501.294922	56538.738281
500.049805	56452.671875
498.804688	56443.480469
497.558594	56499.550781
496.313477	56591.292969
495.067383	56665.625000
493.820313	56723.746094
492.574219	56786.867188
491.327148	56928.070313
490.080078	56982.351563
488.832031	56954.726563
487.584961	57048.195313
486.336914	57269.449219
485.088867	57387.230469
483.839844	57460.191406
482.591797	57659.992188
481.342773	57800.882813
480.092773	57967.886719
478.843750	58192.050781
477.593750	58475.976563
476.343750	58723.386719
475.093750	59074.160156
473.842773	59514.765625
472.592773	60007.503906
471.341797	60744.191406
470.089844	61782.875000
468.838867	63140.718750
467.586914	64909.582031
466.334961	67196.148438
465.082031	69442.679688
463.830078	71065.390625
462.577148	71419.875000
461.324219	70620.914063
460.070313	68854.289063
458.817383	66989.335938
457.563477	65123.714844
456.308594	63476.757813
455.054688	62026.527344
453.799805	60899.574219
452.544922	59970.250000
451.290039	59264.570313
450.034180	58640.046875
448.778320	57963.562500
447.522461	57449.781250
446.266602	57106.093750
445.009766	56788.687500
443.752930	56402.273438
442.496094	56161.656250
441.239258	55957.355469
439.981445	55751.476563
438.723633	55530.851563
437.465820	55328.257813
436.208008	55147.246094
434.949219	54996.792969
433.690430	54822.476563
432.430664	54610.199219
431.171875	54501.683594
429.912109	54436.882813
428.652344	54410.226563
427.392578	54307.945313
426.131836	54152.679688
424.871094	53984.449219
423.610352	53927.914063
422.349609	53862.785156
421.087891	53747.707031
419.826172	53592.773438
418.564453	53482.781250
417.301758	53373.378906
416.039063	53378.589844
414.776367	53323.929688
413.513672	53233.019531
412.250977	53048.722656
410.987305	52974.851563
409.723633	52855.214844
408.458984	52778.535156
407.195313	52678.261719
405.930664	52633.367188
404.665039	52494.226563
403.400391	52431.195313
402.134766	52390.523438
400.869141	52411.097656
399.603516	52366.042969
398.337891	52288.957031
397.071289	52199.562500
395.804688	52112.339844
394.537109	52052.960938
393.270508	51996.796875
392.002930	51991.730469
390.735352	51936.765625
389.466797	51915.214844
388.199219	51894.183594
386.930664	51818.207031
385.661133	51731.839844
384.392578	51740.253906
383.123047	51680.085938
381.853516	51560.906250
380.583984	51421.148438
379.313477	51406.203125
378.042969	51383.277344
376.772461	51402.605469
375.501953	51392.187500
374.230469	51316.332031
372.958984	51170.203125
371.687500	51069.921875
370.416016	51038.972656
369.143555	51048.027344
367.871094	50956.703125
366.598633	50807.882813
365.325195	50807.125000
364.051758	50797.828125
362.778320	50661.566406
361.504883	50477.023438
360.230469	50513.398438
358.956055	50476.339844
357.681641	50370.781250
356.406250	50267.589844
355.131836	50248.855469
353.856445	50207.230469
352.580078	50090.707031
351.304688	49967.062500
350.028320	49890.988281
348.751953	49869.550781
347.475586	49722.082031
346.198242	49552.031250
344.920898	49450.449219
343.643555	49418.632813
342.365234	49424.082031
341.087891	49355.281250
339.809570	49279.156250
338.530273	49145.253906
337.251953	49078.062500
335.972656	48934.964844
334.693359	48878.378906
333.414063	48847.695313
332.133789	48829.664063
330.853516	48722.519531
329.573242	48621.187500
328.291992	48528.632813
327.011719	48476.007813
325.730469	48443.855469
324.448242	48345.968750
323.166992	48234.308594
321.884766	48156.789063
320.602539	48156.527344
319.319336	48092.777344
318.037109	47957.527344
316.753906	47883.324219
315.470703	47843.363281
314.186523	47792.250000
312.902344	47678.699219
311.618164	47589.468750
310.333984	47428.636719
309.048828	47364.992188
307.763672	47384.234375
306.478516	47377.753906
305.193359	47308.457031
303.907227	47233.187500
302.621094	47167.464844
301.334961	47106.578125
300.047852	47064.707031
298.761719	47038.890625
297.474609	46947.125000
296.186523	46764.460938
294.899414	46618.085938
293.611328	46638.566406
292.323242	46696.250000
291.034180	46560.695313
289.745117	46452.906250
288.456055	46398.738281
287.166992	46374.355469
285.877930	46216.304688
284.587891	46084.781250
283.297852	46035.140625
282.006836	46035.136719
280.716797	45980.574219
279.425781	45904.300781
278.133789	45799.832031
276.842773	45646.867188
275.550781	45565.660156
274.258789	45504.765625
272.966797	45416.367188
271.673828	45324.175781
270.380859	45230.460938
269.087891	45175.691406
267.794922	45115.332031
266.500977	45044.253906
265.207031	44868.949219
263.913086	44779.324219
262.618164	44752.214844
261.323242	44762.347656
260.028320	44648.800781
258.733398	44500.250000
257.437500	44367.292969
256.141602	44307.792969
254.845703	44269.359375
253.548828	44140.480469
252.252930	44042.289063
250.955078	43909.562500
249.658203	43867.691406
248.361328	43717.296875
247.063477	43648.535156
245.764648	43623.136719
244.466797	43591.152344
243.167969	43457.839844
241.869141	43371.363281
240.570313	43284.371094
239.270508	43187.457031
237.970703	43098.972656
236.670898	43126.234375
235.371094	43069.429688
234.070313	42943.832031
232.769531	42822.867188
231.468750	42764.863281
230.166992	42686.273438
228.866211	42589.753906
227.563477	42479.289063
226.261719	42447.574219
224.958984	42369.070313
223.656250	42317.503906
222.353516	42237.058594
221.050781	42185.558594
219.747070	42080.820313
218.443359	42002.164063
217.139648	41891.773438
215.834961	41734.742188
214.530273	41639.566406
213.225586	41567.261719
211.919922	41486.828125
210.615234	41343.523438
209.309570	41288.355469
208.002930	41266.152344
206.697266	41204.054688
205.390625	41125.019531
204.083984	41050.656250
202.776367	40914.347656
201.468750	40798.433594
200.161133	40742.855469
198.853516	40729.925781
