##TITLE=Spectrum
##JCAMP-DX=5.00 $$ chemotion-converter-app (1.7.0)
##DATA TYPE=SIZE EXCLUSION CHROMATOGRAPHY
##DATA CLASS=XYPOINTS
##ORIGIN=
##OWNER=
##XUNITS=G/MOL
##YUNITS=ARBITRARY UNITS
##LABEL=Vial   3: MS170_dia25 - 1
##COMMENTS=X:\Marvin Subarew\PAETMC Thiol-ene\MS170\2022-02-11 MS170_dialysis25.TXT
##MN=g/mol
##MW=g/mol
##MP=g/mol
##DETEC1=I2: RI Detector 1, RI Signal
##DETEC2=I2: UV Detector 1, UV Signal
##DETEC3=I2: Pump 1, Sample Pump Pressure
##COL1=PSS SDV 5µm
##COL2=PSS SDV 5µm
##COL3=PSS SDV 5µm
##IN_VOL=50.000
##ELUENT=THF
##FLOW=1.000
##TEMPERATURE=35.000
##DATE=11/02/22
##TIME=12:19:36
##NO_DEC=2
##SOFTWARE=WINGPC
##VERSION=8#1
##OPERATOR=itcp-akt
##FIRSTX=1.64081E+3
##LASTX=6.49293E+4
##MINX=1640.81
##MAXX=64929.3
##MINY=0.0
##MAXY=2.56078
##NPOINTS=380
##FIRSTY=0.00000E+0
##XUNITS=G/MOL
##YUNITS=ARBITRARY UNITS
##XYPOINTS=(XY..XY)
1.64081E+3, 0.00000E+0
1.65681E+3, 0.00000E+0
1.67297E+3, 0.00000E+0
1.68928E+3, 0.00000E+0
1.70576E+3, 0.00000E+0
1.72239E+3, 0.00000E+0
1.73919E+3, 0.00000E+0
1.75615E+3, 0.00000E+0
1.77327E+3, 0.00000E+0
1.79057E+3, 0.00000E+0
1.80803E+3, 0.00000E+0
1.82566E+3, 0.00000E+0
1.84346E+3, 0.00000E+0
1.86144E+3, 0.00000E+0
1.87959E+3, 0.00000E+0
1.89792E+3, 0.00000E+0
1.91643E+3, 0.00000E+0
1.93512E+3, 0.00000E+0
1.95399E+3, 0.00000E+0
1.97305E+3, 0.00000E+0
1.99229E+3, 0.00000E+0
2.01172E+3, 0.00000E+0
2.03134E+3, 0.00000E+0
2.05115E+3, 0.00000E+0
2.07115E+3, 0.00000E+0
2.09135E+3, 0.00000E+0
2.11174E+3, 0.00000E+0
2.13234E+3, 0.00000E+0
2.15313E+3, 0.00000E+0
2.17413E+3, 0.00000E+0
2.19533E+3, 0.00000E+0
2.21674E+3, 0.00000E+0
2.23836E+3, 0.00000E+0
2.26018E+3, 0.00000E+0
2.28223E+3, 0.00000E+0
2.30448E+3, 0.00000E+0
2.32696E+3, 0.00000E+0
2.34965E+3, 0.00000E+0
2.37256E+3, 0.00000E+0
2.39570E+3, 0.00000E+0
2.41906E+3, 0.00000E+0
2.44265E+3, 0.00000E+0
2.46647E+3, 0.00000E+0
2.49053E+3, 0.00000E+0
2.51481E+3, 0.00000E+0
2.53934E+3, 0.00000E+0
2.56410E+3, 0.00000E+0
2.58911E+3, 0.00000E+0
2.61436E+3, 0.00000E+0
2.63985E+3, 0.00000E+0
2.66560E+3, 0.00000E+0
2.69159E+3, 0.00000E+0
2.71784E+3, 0.00000E+0
2.74434E+3, 0.00000E+0
2.77111E+3, 0.00000E+0
2.79813E+3, 0.00000E+0
2.82542E+3, 0.00000E+0
2.85297E+3, 0.00000E+0
2.88079E+3, 0.00000E+0
2.90889E+3, 0.00000E+0
2.93725E+3, 0.00000E+0
2.96590E+3, 0.00000E+0
2.99482E+3, 0.00000E+0
3.02403E+3, 0.00000E+0
3.05352E+3, 0.00000E+0
3.08330E+3, 0.00000E+0
3.11336E+3, 0.00000E+0
3.14373E+3, 0.00000E+0
3.17438E+3, 0.00000E+0
3.20534E+3, 0.00000E+0
3.23660E+3, 0.00000E+0
3.26816E+3, 0.00000E+0
3.30003E+3, 0.00000E+0
3.33222E+3, 0.00000E+0
3.36471E+3, 0.00000E+0
3.39752E+3, 0.00000E+0
3.43066E+3, 0.00000E+0
3.46411E+3, 0.00000E+0
3.49789E+3, 0.00000E+0
3.53201E+3, 0.00000E+0
3.56645E+3, 0.00000E+0
3.60123E+3, 0.00000E+0
3.63635E+3, 0.00000E+0
3.67181E+3, 0.00000E+0
3.70762E+3, 0.00000E+0
3.74378E+3, 0.00000E+0
3.78029E+3, 0.00000E+0
3.81715E+3, 0.00000E+0
3.85438E+3, 0.00000E+0
3.89196E+3, 0.00000E+0
3.92992E+3, 0.00000E+0
3.96824E+3, 0.00000E+0
4.00694E+3, 0.00000E+0
4.04602E+3, 0.00000E+0
4.08547E+3, 0.00000E+0
4.12532E+3, 0.00000E+0
4.16555E+3, 0.00000E+0
4.20617E+3, 0.00000E+0
4.24719E+3, 0.00000E+0
4.28861E+3, 0.00000E+0
4.33043E+3, 0.00000E+0
4.37266E+3, 0.00000E+0
4.41530E+3, 0.00000E+0
4.45836E+3, 0.00000E+0
4.50184E+3, 0.00000E+0
4.54574E+3, 0.00000E+0
4.59007E+3, 0.00000E+0
4.63483E+3, 0.00000E+0
4.68003E+3, 0.00000E+0
4.72567E+3, 0.00000E+0
4.77176E+3, 0.00000E+0
4.81829E+3, 0.00000E+0
4.86528E+3, 0.00000E+0
4.91272E+3, 0.00000E+0
4.96063E+3, 0.00000E+0
5.00901E+3, 0.00000E+0
5.05786E+3, 0.00000E+0
5.10718E+3, 0.00000E+0
5.15699E+3, 0.00000E+0
5.20728E+3, 0.00000E+0
5.25806E+3, 0.00000E+0
5.30934E+3, 0.00000E+0
5.36111E+3, 0.00000E+0
5.41339E+3, 0.00000E+0
5.46619E+3, 0.00000E+0
5.51949E+3, 0.00000E+0
5.57332E+3, 0.00000E+0
5.62767E+3, 0.00000E+0
5.68255E+3, 0.00000E+0
5.73797E+3, 0.00000E+0
5.79392E+3, 0.00000E+0
5.85043E+3, 0.00000E+0
5.90748E+3, 0.00000E+0
5.96509E+3, 0.00000E+0
6.02326E+3, 0.00000E+0
6.08200E+3, 0.00000E+0
6.14131E+3, 0.00000E+0
6.20120E+3, 0.00000E+0
6.26168E+3, 0.00000E+0
6.32274E+3, 0.00000E+0
6.38440E+3, 0.00000E+0
6.44666E+3, 0.00000E+0
6.50953E+3, 0.00000E+0
6.57301E+3, 4.46318E-4
6.63711E+3, 8.75058E-4
6.70184E+3, 4.88430E-3
6.76719E+3, 8.79160E-3
6.83319E+3, 1.19126E-2
6.89982E+3, 9.38605E-3
6.96711E+3, 8.35504E-3
7.03505E+3, 1.15276E-2
7.10366E+3, 1.31622E-2
7.17293E+3, 1.19142E-2
7.24289E+3, 1.18560E-2
7.31352E+3, 1.63435E-2
7.38484E+3, 1.68279E-2
7.45686E+3, 1.96767E-2
7.52958E+3, 1.97406E-2
7.60300E+3, 1.99435E-2
7.67715E+3, 2.27242E-2
7.75202E+3, 2.74426E-2
7.82761E+3, 2.97194E-2
7.90395E+3, 3.03952E-2
7.98103E+3, 3.09260E-2
8.05886E+3, 3.68784E-2
8.13745E+3, 4.43724E-2
8.21681E+3, 4.42651E-2
8.29694E+3, 4.20988E-2
8.37785E+3, 4.83736E-2
8.45955E+3, 5.29738E-2
8.54205E+3, 5.53446E-2
8.62535E+3, 5.49186E-2
8.70947E+3, 5.42460E-2
8.79440E+3, 5.94816E-2
8.88016E+3, 6.80343E-2
8.96676E+3, 7.84274E-2
9.05421E+3, 8.67215E-2
9.14250E+3, 8.62667E-2
9.23166E+3, 8.67963E-2
9.32169E+3, 9.00746E-2
9.41259E+3, 9.23741E-2
9.50439E+3, 1.02674E-1
9.59707E+3, 1.08933E-1
9.69066E+3, 1.07784E-1
9.78517E+3, 1.13571E-1
9.88059E+3, 1.22001E-1
9.97695E+3, 1.26191E-1
1.00742E+4, 1.30093E-1
1.01725E+4, 1.38083E-1
1.02717E+4, 1.43710E-1
1.03719E+4, 1.43792E-1
1.04730E+4, 1.48911E-1
1.05751E+4, 1.57729E-1
1.06783E+4, 1.62407E-1
1.07824E+4, 1.67492E-1
1.08876E+4, 1.78130E-1
1.09937E+4, 1.90382E-1
1.11009E+4, 1.97752E-1
1.12092E+4, 2.05817E-1
1.13185E+4, 2.06052E-1
1.14289E+4, 2.07876E-1
1.15403E+4, 2.18000E-1
1.16529E+4, 2.22878E-1
1.17665E+4, 2.30900E-1
1.18813E+4, 2.34902E-1
1.19971E+4, 2.39243E-1
1.21141E+4, 2.45725E-1
1.22323E+4, 2.61607E-1
1.23516E+4, 2.68412E-1
1.24720E+4, 2.78277E-1
1.25936E+4, 2.88829E-1
1.27165E+4, 2.93391E-1
1.28405E+4, 2.99521E-1
1.29657E+4, 3.13221E-1
1.30921E+4, 3.23516E-1
1.32198E+4, 3.32241E-1
1.33487E+4, 3.43444E-1
1.34789E+4, 3.54428E-1
1.36103E+4, 3.66127E-1
1.37431E+4, 3.77155E-1
1.38771E+4, 3.85280E-1
1.40124E+4, 3.94485E-1
1.41491E+4, 4.03665E-1
1.42871E+4, 4.09473E-1
1.44264E+4, 4.24605E-1
1.45671E+4, 4.39867E-1
1.47091E+4, 4.54952E-1
1.48526E+4, 4.69605E-1
1.49974E+4, 4.80606E-1
1.51437E+4, 4.95436E-1
1.52914E+4, 5.07749E-1
1.54405E+4, 5.22109E-1
1.55910E+4, 5.36619E-1
1.57431E+4, 5.47939E-1
1.58966E+4, 5.60843E-1
1.60516E+4, 5.79191E-1
1.62082E+4, 5.97556E-1
1.63662E+4, 6.12874E-1
1.65258E+4, 6.30148E-1
1.66870E+4, 6.48636E-1
1.68497E+4, 6.64844E-1
1.70141E+4, 6.95139E-1
1.71800E+4, 7.12330E-1
1.73475E+4, 7.33325E-1
1.75167E+4, 7.56913E-1
1.76875E+4, 7.81183E-1
1.78600E+4, 8.06378E-1
1.80342E+4, 8.31208E-1
1.82100E+4, 8.56606E-1
1.83876E+4, 8.86390E-1
1.85669E+4, 9.18504E-1
1.87480E+4, 9.47940E-1
1.89308E+4, 9.78365E-1
1.91155E+4, 1.01036E+0
1.93019E+4, 1.04291E+0
1.94901E+4, 1.07843E+0
1.96802E+4, 1.11233E+0
1.98721E+4, 1.14510E+0
2.00659E+4, 1.17738E+0
2.02616E+4, 1.21512E+0
2.04592E+4, 1.25428E+0
2.06587E+4, 1.28983E+0
2.08601E+4, 1.32675E+0
2.10636E+4, 1.37089E+0
2.12690E+4, 1.40942E+0
2.14764E+4, 1.44615E+0
2.16858E+4, 1.48981E+0
2.18973E+4, 1.53153E+0
2.21109E+4, 1.57111E+0
2.23265E+4, 1.61051E+0
2.25442E+4, 1.64903E+0
2.27641E+4, 1.68741E+0
2.29861E+4, 1.72888E+0
2.32102E+4, 1.77369E+0
2.34366E+4, 1.81301E+0
2.36651E+4, 1.85110E+0
2.38959E+4, 1.89367E+0
2.41289E+4, 1.93877E+0
2.43642E+4, 1.98773E+0
2.46018E+4, 2.03119E+0
2.48418E+4, 2.06787E+0
2.50840E+4, 2.10435E+0
2.53286E+4, 2.14146E+0
2.55756E+4, 2.17074E+0
2.58251E+4, 2.20381E+0
2.60769E+4, 2.23929E+0
2.63312E+4, 2.27109E+0
2.65880E+4, 2.29840E+0
2.68473E+4, 2.32132E+0
2.71091E+4, 2.34416E+0
2.73735E+4, 2.37061E+0
2.76404E+4, 2.39324E+0
2.79100E+4, 2.41177E+0
2.81821E+4, 2.42364E+0
2.84570E+4, 2.43721E+0
2.87345E+4, 2.45204E+0
2.90147E+4, 2.46291E+0
2.92977E+4, 2.46809E+0
2.95834E+4, 2.47034E+0
2.98719E+4, 2.47049E+0
3.01632E+4, 2.46662E+0
3.04573E+4, 2.46114E+0
3.07543E+4, 2.45675E+0
3.10543E+4, 2.45127E+0
3.13571E+4, 2.44578E+0
3.16629E+4, 2.43965E+0
3.19717E+4, 2.42896E+0
3.22835E+4, 2.42040E+0
3.25983E+4, 2.40975E+0
3.29162E+4, 2.40445E+0
3.32372E+4, 2.39808E+0
3.35613E+4, 2.39487E+0
3.38886E+4, 2.39741E+0
3.42191E+4, 2.40218E+0
3.45528E+4, 2.40751E+0
3.48898E+4, 2.42212E+0
3.52300E+4, 2.43935E+0
3.55736E+4, 2.46042E+0
3.59205E+4, 2.48612E+0
3.62708E+4, 2.51293E+0
3.66245E+4, 2.53423E+0
3.69817E+4, 2.54968E+0
3.73423E+4, 2.56013E+0
3.77065E+4, 2.56078E+0
3.80742E+4, 2.54758E+0
3.84455E+4, 2.52353E+0
3.88204E+4, 2.49268E+0
3.91990E+4, 2.45535E+0
3.95813E+4, 2.41673E+0
3.99673E+4, 2.36465E+0
4.03570E+4, 2.31139E+0
4.07506E+4, 2.25169E+0
4.11480E+4, 2.18153E+0
4.15493E+4, 2.10432E+0
4.19544E+4, 2.03468E+0
4.23636E+4, 1.95961E+0
4.27767E+4, 1.88908E+0
4.31939E+4, 1.82206E+0
4.36151E+4, 1.75429E+0
4.40404E+4, 1.68224E+0
4.44699E+4, 1.60860E+0
4.49036E+4, 1.53174E+0
4.53415E+4, 1.46228E+0
4.57837E+4, 1.39375E+0
4.62301E+4, 1.32540E+0
4.66810E+4, 1.25940E+0
4.71362E+4, 1.19536E+0
4.75959E+4, 1.12803E+0
4.80600E+4, 1.06224E+0
4.85287E+4, 1.00148E+0
4.90020E+4, 9.46951E-1
4.94798E+4, 8.96175E-1
4.99624E+4, 8.38034E-1
5.04496E+4, 7.84572E-1
5.09416E+4, 7.38741E-1
5.14384E+4, 6.93160E-1
5.19400E+4, 6.46464E-1
5.24465E+4, 6.04133E-1
5.29580E+4, 5.68271E-1
5.34744E+4, 5.34225E-1
5.39959E+4, 4.97805E-1
5.45225E+4, 4.65589E-1
5.50542E+4, 4.40309E-1
5.55911E+4, 4.09649E-1
5.61332E+4, 3.84424E-1
5.66806E+4, 3.59171E-1
5.72334E+4, 3.37577E-1
5.77915E+4, 3.18800E-1
5.83551E+4, 2.98696E-1
5.89242E+4, 2.83034E-1
5.94988E+4, 2.62670E-1
6.00790E+4, 2.43510E-1
6.06649E+4, 2.30330E-1
6.12565E+4, 2.23357E-1
6.18539E+4, 2.05816E-1
6.24571E+4, 1.93095E-1
6.30662E+4, 1.82357E-1
6.36812E+4, 1.72841E-1
6.43022E+4, 1.64452E-1
6.49293E+4, 1.58134E-1
##END=$$ End of the data block
