##TITLE= 9-PhOEtAcetylen
##JCAMP-DX= 4.24
##DATA TYPE= UV-VIS $$ FLUORESCENCE SPECTRUM
##ORIGIN= JASCO
##OWNER= 
##DATE= 23/02/09
##TIME= 12:05:22
##SPECTROMETER/DATA SYSTEM= 
##RESOLUTION= 
##DELTAX=   0.50000000
##XUNITS= NANOMETERS
##YUNITS= INTENSITY
##XFACTOR= 1.00000
##YFACTOR= 0.0001
##FIRSTX=   390.0000
##LASTX=   600.0000
##NPOINTS=      421
##FIRSTY=      2.77029
##MAXY=    293.00714
##MINY=      2.03748
##XYDATA= (X++(Y..Y))
390.0000 27703 27737 26361 23847 22544 21318 21942 22274 23649 25222 26973
395.5000 28907 30187 32092 34121 36382 38528 42261 46682 50600 55431 62406
401.0000 68095 75730 82594 88938 97277 108184 118699 128892 145476 160321
406.0000 172515 192390 213169 233000 259954 284815 315196 349817 376749 414494
411.0000 456709 491341 533209 575663 627662 675803 727610 784842 836834 894782
416.0000 959961 1020767 1067997 1137625 1207119 1262748 1326995 1394752
420.0000 1460359 1511668 1577561 1636603 1698948 1748067 1810123 1864370
424.0000 1921658 1972484 2022312 2078625 2138178 2173619 2232449 2273361
428.0000 2315181 2352577 2381899 2412496 2442136 2463348 2486976 2524962
432.0000 2546778 2565571 2585057 2608447 2633442 2662355 2672703 2691057
436.0000 2708178 2729151 2749908 2768962 2778337 2798330 2811204 2809595
440.0000 2839546 2841399 2841967 2864129 2874866 2876816 2891949 2898095
444.0000 2902193 2909746 2919153 2913340 2922102 2921078 2930072 2925564
448.0000 2928860 2921000 2917595 2908064 2919554 2905489 2891436 2883123
452.0000 2873896 2855074 2861574 2838112 2825129 2810696 2797389 2786064
456.0000 2769778 2762113 2747062 2718129 2704057 2684061 2662717 2645736
460.0000 2621293 2602874 2580849 2565140 2539782 2515518 2503377 2470579
464.0000 2438177 2424138 2396116 2381959 2349357 2334770 2305263 2278673
468.0000 2260975 2229628 2214790 2181499 2168465 2126688 2116088 2097650
472.0000 2072515 2038194 2016043 1995303 1975667 1954081 1916961 1901642
476.0000 1874258 1845691 1830069 1803683 1778836 1765465 1735414 1717770
480.0000 1692523 1670441 1639266 1623364 1597360 1577520 1553623 1533712
484.0000 1510681 1478409 1473385 1443300 1419695 1399790 1381281 1363145
488.0000 1340523 1325705 1297347 1275056 1261596 1247704 1226901 1203633
492.0000 1180086 1159022 1132130 1099211 1076644 1050002 1019035 995105 968159
496.5000 943683 920363 886421 872010 847731 824160 803517 779777 756252 737497
501.5000 717830 701324 678972 660629 645279 623857 612796 595448 580227 572490
506.5000 557834 542996 529789 524822 513408 502041 492258 487857 477093 469513
511.5000 463125 452736 446009 440016 430293 420809 419522 412041 401094 397402
516.5000 386701 385862 379594 372774 365256 361715 354457 346948 344570 338919
521.5000 333216 329109 325531 323717 312713 311210 308304 305404 299196 299785
526.5000 295121 290318 287438 282966 282283 276275 271508 271261 269006 264773
531.5000 262919 257769 255179 254626 250067 245713 243572 241237 236170 233873
536.5000 230491 228744 223295 219768 218208 214018 211740 209091 203424 201011
541.5000 199420 196917 191387 187110 182592 181965 179048 175350 172994 171377
546.5000 165845 163023 163077 157721 155371 154218 149423 147263 146199 143672
551.5000 140214 138182 134697 130708 129176 124670 123833 122877 120439 116165
556.5000 115008 111628 111062 108821 104629 105208 100514 99223 96655 93922
561.5000 92508 92228 90646 86908 85842 83455 82012 79572 78012 75396 74857
567.0000 72472 71535 69584 67608 66312 64101 63079 62690 61389 60145 58205
572.5000 58000 55525 53887 53475 51330 50007 49113 47885 47955 46851 46083
578.0000 44898 43613 43423 42154 41453 40506 39570 38701 37814 36565 36072
583.5000 35397 34753 34248 34383 32952 32636 32694 31102 30464 30287 30118
589.0000 28696 28831 27671 27889 27083 26485 26363 26250 26000 25078 24587
594.5000 24778 23151 23245 23267 22047 22636 21435 21773 21864 20764 20929
600.0000 20375
##END= 
