##TITLE= BF2PhOEtAcPh_2
##JCAMP-DX= 4.24
##DATA TYPE= UV-VIS $$ FLUORESCENCE SPECTRUM
##ORIGIN= JASCO
##OWNER= 
##DATE= 23/02/10
##TIME= 11:21:21
##SPECTROMETER/DATA SYSTEM= 
##RESOLUTION= 
##DELTAX=   0.50000000
##XUNITS= NANOMETERS
##YUNITS= INTENSITY
##XFACTOR= 1.00000
##YFACTOR= 0.001
##FIRSTX=   460.0000
##LASTX=   600.0000
##NPOINTS=      281
##FIRSTY=   1493.94702
##MAXY=   3080.11670
##MINY=     12.24192
##XYDATA= (X++(Y..Y))
460.0000 1493947 1603069 1715108 1817284 1909365 2021937 2111566 2211187
464.0000 2314843 2410470 2497666 2572202 2658511 2720548 2786806 2852596
468.0000 2906149 2948984 2984500 3015643 3045260 3060300 3067645 3080117
472.0000 3072310 3069984 3056711 3033627 3017009 2990736 2961870 2931032
476.0000 2895319 2858587 2822430 2784379 2746036 2701391 2659379 2617946
480.0000 2579683 2534873 2492256 2453555 2415009 2379917 2343332 2306002
484.0000 2276209 2242719 2211318 2180898 2155169 2125050 2102138 2077554
488.0000 2054830 2034085 2017287 1997674 1987810 1973160 1954341 1938821
492.0000 1922289 1895932 1871056 1843180 1825515 1792451 1766863 1741521
496.0000 1715415 1688201 1662234 1631574 1609922 1580922 1555144 1524486
500.0000 1500899 1474602 1445226 1411690 1388742 1361148 1332943 1305840
504.0000 1276443 1254012 1228067 1203012 1177784 1157630 1134237 1112956
508.0000 1088040 1067374 1048312 1028278 1006060 986055 964112 946202 928182
512.5000 908747 889281 868075 852515 834828 818866 799088 784642 767056 751286
517.5000 735121 717133 705611 691141 677089 662225 648864 636773 625559 614449
522.5000 603152 592414 581976 572892 563300 555194 546441 537337 530658 523592
527.5000 516530 509704 502088 496523 490811 484872 478148 471321 465643 459683
532.5000 454329 449521 442654 436796 431471 424531 419561 414417 407936 402288
537.5000 395430 389029 384260 378781 372714 366073 358503 352177 347220 340009
542.5000 335892 328489 321965 316147 309722 303498 297298 291863 286222 279431
547.5000 272664 266764 261364 255403 250479 244165 237611 232457 226027 220974
552.5000 215607 210336 204919 199584 194030 188686 183340 178993 174062 169605
557.5000 164772 160253 155790 150596 146282 142339 138295 134028 130378 126571
562.5000 122940 119173 115860 111686 108895 105327 101861 99194 96525 93481
567.5000 90300 87556 84547 82178 79396 77033 74891 73205 70243 68151 66094
573.0000 64255 62235 60224 58052 56705 54914 53355 51709 50318 48634 47091
578.5000 46184 44553 43125 41744 40595 39510 38175 37071 36150 35196 34165
584.0000 33105 32181 31296 30101 29307 28437 27615 26800 25919 25116 24623
589.5000 23669 23031 22409 21739 21161 20475 19788 19285 18753 18022 17610
595.0000 17089 16464 16173 15491 15015 14545 14083 13696 13211 12742 12242
##END= 
